Data from palm_tumV_v_45_25_Reflection_00004.txt Node
Date: Fri Feb 11 15:37:50 ART 2022
User: Nati
Spectrometer: USB2E3644
Trigger mode: 4
Integration Time (sec): 3,520000E-1
Scans to average: 10
Electric dark correction enabled: true
Nonlinearity correction enabled: false
Boxcar width: 10
XAxis mode: Wavelengths
Number of Pixels in Spectrum: 2048
>>>>>Begin Spectral Data<<<<<
178,315	-499,01
178,696	-1200
179,076	-336,69
179,457	-344,12
179,838	-27,69
180,218	-23,28
180,599	-202,25
180,979	-328,57
181,36	-14,34
181,74	-0
182,121	-28,92
182,501	-372,41
182,881	453,06
183,262	948,39
183,642	771,43
184,022	433,04
184,402	347,59
184,783	500,92
185,163	422,07
185,543	378,61
185,923	641,74
186,303	1072,94
186,683	1019,42
187,063	1995,92
187,443	-3186,21
187,823	-968,67
188,203	-405,08
188,583	-238,91
188,963	-173,89
189,343	-270,55
189,723	-444,32
190,102	-330,61
190,482	-198,92
190,862	-149,06
191,242	-135,64
191,621	-101,27
192,001	-75,57
192,38	-51,97
192,76	-38,24
193,14	-35,29
193,519	-29,2
193,898	-19,35
194,278	-9,05
194,657	-5,12
195,037	-5
195,416	-11,17
195,795	-25,8
196,175	-32,98
196,554	-59,77
196,933	-85,45
197,312	-63,72
197,692	-58,09
198,071	-64,05
198,45	-63,51
198,829	-53,64
199,208	-55,95
199,587	-61,8
199,966	-58,95
200,345	-66,76
200,724	-61,43
201,103	-50,47
201,482	-43,9
201,86	-48,98
202,239	-61,91
202,618	-82,85
202,997	-85,58
203,375	-75,59
203,754	-59,74
204,133	-67,37
204,511	-55,29
204,89	-54,23
205,269	-66,5
205,647	-67,29
206,026	-66,47
206,404	-74,63
206,782	-132,75
207,161	-149,04
207,539	-185,75
207,918	-228,49
208,296	-297,11
208,674	-313,31
209,052	-333,06
209,431	-536,65
209,809	-7745,45
210,187	2806,45
210,565	4736,84
210,943	1215,19
211,321	465,24
211,699	427,32
212,077	889,41
212,455	1145,45
212,833	-1273,17
213,211	-426,17
213,589	-262,28
213,967	-190,79
214,345	-117,77
214,722	-105,8
215,1	-104,35
215,478	-63,47
215,855	-35,09
216,233	-25,25
216,611	-18,45
216,988	-27,31
217,366	-28,99
217,743	-35,29
218,121	-38,85
218,498	-23,51
218,876	-17,1
219,253	-24,83
219,631	-16,08
220,008	-18,86
220,385	-19,88
220,762	-26,31
221,14	-25,58
221,517	-24,66
221,894	-19,43
222,271	-16,15
222,648	5,43
223,025	17,85
223,402	13,41
223,78	9,1
224,157	12,63
224,533	-3,78
224,91	-19,42
225,287	-25,82
225,664	-32,65
226,041	-21,04
226,418	-22,26
226,795	-10,5
227,171	-11,73
227,548	-14,2
227,925	-18,28
228,301	-24,17
228,678	-23,62
229,055	-13,95
229,431	-17,31
229,808	-15,69
230,184	-25,03
230,561	-40,05
230,937	-44,83
231,313	-55,54
231,69	-56,4
232,066	-60,06
232,442	-50,94
232,819	-46,71
233,195	-42,5
233,571	-34,65
233,947	-34,48
234,323	-33,73
234,699	-38,67
235,075	-38,33
235,451	-40,8
235,827	-34,68
236,203	-36,09
236,579	-35,11
236,955	-38,46
237,331	-34,79
237,707	-39,95
238,083	-37,85
238,459	-28,35
238,834	-21,3
239,21	-11,98
239,586	-6,68
239,961	-0,99
240,337	0,94
240,713	4,32
241,088	3,7
241,464	4,52
241,839	6
242,215	5,38
242,59	6,15
242,965	7,97
243,341	9,28
243,716	9,91
244,091	10,81
244,467	12,91
244,842	14,2
245,217	14,83
245,592	16,36
245,967	16,83
246,343	16,78
246,718	17,35
247,093	16,91
247,468	15,9
247,843	14,89
248,218	14,79
248,593	15,03
248,967	15,27
249,342	14,97
249,717	14,92
250,092	15,2
250,467	14,76
250,841	14,76
251,216	14,56
251,591	14,5
251,965	15,01
252,34	14,06
252,714	12,98
253,089	12,41
253,463	11,71
253,838	11
254,212	10,67
254,587	10,59
254,961	11,66
255,335	12,5
255,71	12,34
256,084	11,68
256,458	10,83
256,832	11,11
257,206	11,82
257,581	11,42
257,955	10,63
258,329	10,96
258,703	10,97
259,077	10,36
259,451	10,27
259,825	9,79
260,199	9,4
260,572	9,06
260,946	8,64
261,32	8,83
261,694	9,69
262,068	10,48
262,441	10,89
262,815	10,62
263,189	10,51
263,562	10,59
263,936	10,51
264,309	10,57
264,683	10,34
265,056	10,46
265,43	10,72
265,803	12,12
266,176	12,58
266,55	13,01
266,923	13,65
267,296	13,23
267,67	12,91
268,043	13,34
268,416	13,83
268,789	13,72
269,162	13,72
269,535	13,64
269,908	14,18
270,281	14,15
270,654	14,35
271,027	14,26
271,4	14,53
271,773	14,73
272,146	14,45
272,519	14,7
272,891	14,54
273,264	14,76
273,637	14,54
274,01	14,32
274,382	14,13
274,755	14,46
275,127	14,8
275,5	15,6
275,872	15,63
276,245	15,68
276,617	16,21
276,99	16,56
277,362	15,97
277,734	14,91
278,107	14,56
278,479	14,49
278,851	14,58
279,223	14,33
279,596	14,23
279,968	14,53
280,34	14,22
280,712	14,38
281,084	14,68
281,456	14,61
281,828	14,77
282,2	14,98
282,572	14,95
282,944	15,19
283,315	15,15
283,687	15,44
284,059	15,39
284,431	15,24
284,802	15,03
285,174	15,25
285,546	15,41
285,917	15,34
286,289	15,23
286,66	15,13
287,032	15,07
287,403	15,1
287,775	15,22
288,146	15,23
288,518	14,95
288,889	14,59
289,26	14,6
289,632	14,64
290,003	14,8
290,374	15,3
290,745	15,33
291,116	15,31
291,487	15
291,858	15,04
292,229	15,38
292,6	15,35
292,971	15,32
293,342	15,33
293,713	15,46
294,084	15,59
294,455	15,92
294,826	16,37
295,196	16,72
295,567	16,64
295,938	16,75
296,308	16,77
296,679	16,91
297,05	16,94
297,42	17,03
297,791	16,72
298,161	16,33
298,532	16,12
298,902	16,05
299,272	16,25
299,643	16,42
300,013	16,38
300,383	16,53
300,754	16,24
301,124	16,06
301,494	15,97
301,864	15,84
302,234	15,35
302,604	15,19
302,974	15,4
303,344	15,92
303,714	16,18
304,084	16,25
304,454	16,31
304,824	16,39
305,194	16,31
305,563	16,39
305,933	16,62
306,303	16,91
306,673	16,92
307,042	16,73
307,412	16,5
307,781	16,3
308,151	16,28
308,521	16,58
308,89	16,66
309,259	16,67
309,629	16,75
309,998	16,95
310,368	16,88
310,737	16,48
311,106	16,1
311,475	16,13
311,845	16,28
312,214	16,4
312,583	16,4
312,952	16,21
313,321	16,14
313,69	15,83
314,059	15,6
314,428	15,53
314,797	15,48
315,166	15,33
315,535	14,96
315,904	14,7
316,272	14,58
316,641	14,64
317,01	14,66
317,379	14,44
317,747	14,32
318,116	14,08
318,484	14,24
318,853	14,08
319,221	13,66
319,59	13,39
319,958	13,24
320,327	13,32
320,695	13,24
321,063	13,06
321,432	13,12
321,8	13,09
322,168	13,1
322,536	13,03
322,905	13,08
323,273	13,51
323,641	13,55
324,009	13,67
324,377	13,66
324,745	13,72
325,113	13,92
325,481	14,03
325,849	14,11
326,216	13,9
326,584	13,81
326,952	13,84
327,32	13,91
327,687	13,69
328,055	13,55
328,423	13,66
328,79	13,94
329,158	13,99
329,525	14,19
329,893	14,37
330,26	14,46
330,628	14,45
330,995	14,3
331,362	14,36
331,73	14,19
332,097	14,17
332,464	14,11
332,831	14,16
333,199	13,98
333,566	14,07
333,933	14,26
334,3	14,41
334,667	14,42
335,034	14,33
335,401	14,43
335,768	14,44
336,135	14,41
336,502	14,25
336,868	14,44
337,235	14,31
337,602	14,14
337,969	14,07
338,335	13,98
338,702	13,98
339,069	13,9
339,435	13,97
339,802	13,89
340,168	13,86
340,535	13,72
340,901	13,76
341,267	13,77
341,634	13,7
342	13,64
342,366	13,69
342,733	13,71
343,099	13,55
343,465	13,51
343,831	13,49
344,197	13,42
344,563	13,24
344,929	13,1
345,295	13,07
345,661	13,04
346,027	13,18
346,393	13,18
346,759	13,17
347,125	13,1
347,491	13,12
347,856	13,1
348,222	13,07
348,588	12,94
348,953	12,84
349,319	12,87
349,684	12,82
350,05	12,84
350,415	12,83
350,781	12,9
351,146	12,83
351,512	12,75
351,877	12,81
352,242	12,74
352,608	12,83
352,973	12,82
353,338	12,85
353,703	12,82
354,068	12,85
354,433	12,88
354,798	12,99
355,164	13,19
355,528	13,28
355,893	13,39
356,258	13,4
356,623	13,39
356,988	13,36
357,353	13,38
357,718	13,26
358,082	13,35
358,447	13,42
358,812	13,49
359,176	13,63
359,541	13,54
359,905	13,53
360,27	13,55
360,634	13,54
360,999	13,57
361,363	13,55
361,728	13,53
362,092	13,59
362,456	13,53
362,821	13,35
363,185	13,27
363,549	13,2
363,913	13,31
364,277	13,35
364,641	13,31
365,005	13,27
365,369	13,31
365,733	13,23
366,097	13,17
366,461	13,16
366,825	13,04
367,189	13,12
367,553	13,2
367,916	13,2
368,28	13,21
368,644	13,17
369,007	13,18
369,371	13,22
369,734	13,22
370,098	13,24
370,461	13,23
370,825	13,25
371,188	13,27
371,552	13,28
371,915	13,27
372,278	13,27
372,642	13,31
373,005	13,39
373,368	13,39
373,731	13,36
374,094	13,4
374,457	13,41
374,82	13,4
375,183	13,33
375,546	13,26
375,909	13,21
376,272	13,17
376,635	13,13
376,998	13,09
377,361	13,04
377,723	13,04
378,086	13,08
378,449	13,09
378,811	13,04
379,174	12,94
379,537	12,93
379,899	12,88
380,262	12,91
380,624	12,86
380,987	12,83
381,349	12,86
381,711	12,81
382,074	12,81
382,436	12,82
382,798	13,04
383,16	12,97
383,522	12,93
383,884	12,94
384,247	13,01
384,609	12,99
384,971	13,02
385,333	12,94
385,695	12,89
386,056	12,88
386,418	12,85
386,78	12,98
387,142	12,88
387,504	12,86
387,865	12,81
388,227	12,74
388,589	12,79
388,95	12,8
389,312	12,8
389,673	12,84
390,035	12,83
390,396	12,66
390,758	12,74
391,119	12,79
391,48	12,77
391,842	12,76
392,203	12,7
392,564	12,71
392,925	12,77
393,286	12,77
393,648	12,74
394,009	12,79
394,37	12,7
394,731	12,76
395,092	12,78
395,452	12,82
395,813	12,85
396,174	12,81
396,535	12,81
396,896	12,79
397,257	12,76
397,617	12,75
397,978	12,87
398,338	12,83
398,699	12,79
399,06	12,88
399,42	12,79
399,781	12,87
400,141	12,81
400,501	12,78
400,862	12,8
401,222	12,82
401,582	12,82
401,943	12,88
402,303	12,92
402,663	12,96
403,023	12,93
403,383	12,91
403,743	12,93
404,103	12,93
404,463	12,94
404,823	12,96
405,183	12,94
405,543	12,85
405,903	12,88
406,262	12,9
406,622	12,86
406,982	12,92
407,342	12,88
407,701	12,9
408,061	12,91
408,42	12,95
408,78	12,93
409,139	12,94
409,499	12,93
409,858	12,94
410,217	12,89
410,577	12,9
410,936	12,94
411,295	12,9
411,655	12,88
412,014	12,94
412,373	12,94
412,732	12,93
413,091	12,94
413,45	12,93
413,809	12,92
414,168	12,92
414,527	12,89
414,886	12,92
415,245	12,94
415,603	12,94
415,962	12,94
416,321	12,98
416,679	12,96
417,038	12,98
417,397	12,97
417,755	13
418,114	13,01
418,472	13
418,831	13,04
419,189	13,05
419,547	13,05
419,906	13,06
420,264	13,09
420,622	13,1
420,981	13,13
421,339	13,15
421,697	13,17
422,055	13,2
422,413	13,23
422,771	13,24
423,129	13,27
423,487	13,29
423,845	13,3
424,203	13,32
424,56	13,34
424,918	13,37
425,276	13,39
425,634	13,42
425,991	13,47
426,349	13,48
426,707	13,53
427,064	13,54
427,422	13,57
427,779	13,61
428,137	13,67
428,494	13,73
428,851	13,79
429,209	13,86
429,566	13,91
429,923	13,96
430,28	14,02
430,637	14,08
430,995	14,08
431,352	14,12
431,709	14,17
432,066	14,22
432,423	14,27
432,78	14,31
433,137	14,34
433,493	14,37
433,85	14,48
434,207	14,45
434,564	14,52
434,92	14,57
435,277	14,62
435,634	14,66
435,99	14,7
436,347	14,77
436,703	14,83
437,06	14,9
437,416	14,95
437,773	14,98
438,129	15,01
438,485	15,11
438,841	15,13
439,198	15,17
439,554	15,19
439,91	15,22
440,266	15,26
440,622	15,3
440,978	15,35
441,334	15,37
441,69	15,46
442,046	15,51
442,402	15,53
442,758	15,59
443,113	15,63
443,469	15,68
443,825	15,72
444,181	15,74
444,536	15,78
444,892	15,84
445,247	15,89
445,603	15,91
445,958	15,94
446,314	15,98
446,669	16,02
447,025	16,04
447,38	16,08
447,735	16,1
448,09	16,13
448,446	16,16
448,801	16,21
449,156	16,24
449,511	16,26
449,866	16,32
450,221	16,38
450,576	16,43
450,931	16,49
451,286	16,54
451,641	16,57
451,995	16,62
452,35	16,63
452,705	16,66
453,06	16,7
453,414	16,74
453,769	16,76
454,123	16,79
454,478	16,83
454,832	16,86
455,187	16,85
455,541	16,88
455,896	16,91
456,25	16,89
456,604	16,92
456,958	16,95
457,313	16,98
457,667	16,99
458,021	16,98
458,375	16,97
458,729	16,97
459,083	16,98
459,437	16,99
459,791	17
460,145	17,04
460,499	17,04
460,852	17,05
461,206	17,07
461,56	17,08
461,914	17,11
462,267	17,11
462,621	17,15
462,974	17,16
463,328	17,18
463,681	17,22
464,035	17,22
464,388	17,24
464,742	17,24
465,095	17,24
465,448	17,29
465,801	17,31
466,155	17,35
466,508	17,35
466,861	17,36
467,214	17,34
467,567	17,33
467,92	17,36
468,273	17,34
468,626	17,34
468,979	17,36
469,332	17,34
469,684	17,35
470,037	17,37
470,39	17,38
470,743	17,39
471,095	17,4
471,448	17,4
471,8	17,4
472,153	17,43
472,505	17,43
472,858	17,42
473,21	17,44
473,562	17,44
473,915	17,46
474,267	17,48
474,619	17,51
474,971	17,49
475,324	17,49
475,676	17,53
476,028	17,52
476,38	17,49
476,732	17,49
477,084	17,49
477,436	17,49
477,787	17,48
478,139	17,49
478,491	17,48
478,843	17,48
479,195	17,51
479,546	17,51
479,898	17,54
480,249	17,62
480,601	17,69
480,952	17,72
481,304	17,76
481,655	17,77
482,007	17,77
482,358	17,77
482,709	17,76
483,061	17,74
483,412	17,74
483,763	17,75
484,114	17,76
484,465	17,75
484,816	17,76
485,167	17,76
485,518	17,77
485,869	17,77
486,22	17,78
486,571	17,78
486,922	17,79
487,272	17,78
487,623	17,75
487,974	17,71
488,324	17,69
488,675	17,67
489,025	17,67
489,376	17,67
489,726	17,69
490,077	17,7
490,427	17,72
490,778	17,74
491,128	17,75
491,478	17,75
491,828	17,79
492,179	17,8
492,529	17,8
492,879	17,8
493,229	17,82
493,579	17,83
493,929	17,84
494,279	17,86
494,629	17,9
494,979	17,92
495,328	17,94
495,678	17,98
496,028	18,01
496,378	18,04
496,727	18,09
497,077	18,12
497,426	18,2
497,776	18,22
498,125	18,25
498,475	18,27
498,824	18,3
499,174	18,31
499,523	18,33
499,872	18,38
500,221	18,42
500,571	18,47
500,92	18,51
501,269	18,57
501,618	18,6
501,967	18,64
502,316	18,67
502,665	18,72
503,014	18,77
503,363	18,81
503,711	18,85
504,06	18,89
504,409	18,93
504,758	18,91
505,106	18,98
505,455	19,03
505,803	19,09
506,152	19,13
506,5	19,19
506,849	19,24
507,197	19,29
507,546	19,34
507,894	19,4
508,242	19,45
508,59	19,48
508,939	19,54
509,287	19,6
509,635	19,66
509,983	19,71
510,331	19,75
510,679	19,82
511,027	19,86
511,375	19,9
511,723	19,92
512,07	20
512,418	20,07
512,766	20,14
513,114	20,2
513,461	20,26
513,809	20,33
514,156	20,38
514,504	20,44
514,851	20,52
515,199	20,56
515,546	20,66
515,893	20,76
516,241	20,84
516,588	20,89
516,935	20,97
517,282	21,02
517,63	21,08
517,977	21,11
518,324	21,19
518,671	21,26
519,018	21,34
519,365	21,4
519,711	21,45
520,058	21,51
520,405	21,53
520,752	21,6
521,099	21,63
521,445	21,71
521,792	21,79
522,138	21,88
522,485	21,99
522,832	22,08
523,178	22,14
523,524	22,18
523,871	22,25
524,217	22,3
524,563	22,39
524,91	22,5
525,256	22,65
525,602	22,77
525,948	22,86
526,294	22,91
526,64	22,93
526,986	22,95
527,332	22,98
527,678	23,03
528,024	23,05
528,37	23,11
528,716	23,14
529,061	23,17
529,407	23,2
529,753	23,23
530,098	23,26
530,444	23,31
530,789	23,35
531,135	23,37
531,48	23,41
531,826	23,44
532,171	23,46
532,516	23,46
532,862	23,47
533,207	23,47
533,552	23,49
533,897	23,54
534,242	23,57
534,587	23,59
534,932	23,62
535,277	23,66
535,622	23,64
535,967	23,68
536,312	23,7
536,657	23,72
537,001	23,75
537,346	23,77
537,691	23,78
538,035	23,82
538,38	23,87
538,724	23,88
539,069	23,89
539,413	23,91
539,758	23,94
540,102	23,95
540,446	23,95
540,791	23,97
541,135	23,97
541,479	23,99
541,823	24
542,167	24,02
542,512	24,05
542,856	24,06
543,2	24,06
543,543	24,05
543,887	24,08
544,231	24,1
544,575	24,11
544,919	24,12
545,262	24,15
545,606	24,14
545,95	24,17
546,293	24,19
546,637	24,2
546,98	24,22
547,324	24,22
547,667	24,29
548,011	24,29
548,354	24,33
548,697	24,32
549,04	24,36
549,384	24,34
549,727	24,31
550,07	24,36
550,413	24,36
550,756	24,4
551,099	24,4
551,442	24,38
551,785	24,41
552,128	24,41
552,47	24,37
552,813	24,4
553,156	24,39
553,499	24,37
553,841	24,38
554,184	24,38
554,526	24,39
554,869	24,37
555,211	24,38
555,554	24,36
555,896	24,36
556,238	24,32
556,581	24,35
556,923	24,35
557,265	24,33
557,607	24,32
557,949	24,29
558,291	24,26
558,633	24,23
558,975	24,21
559,317	24,2
559,659	24,2
560,001	24,15
560,343	24,14
560,685	24,16
561,026	24,15
561,368	24,11
561,71	24,09
562,051	24,04
562,393	24,05
562,734	23,99
563,076	23,99
563,417	23,98
563,759	23,93
564,1	23,9
564,441	23,89
564,782	23,86
565,124	23,83
565,465	23,84
565,806	23,82
566,147	23,79
566,488	23,79
566,829	23,77
567,17	23,77
567,511	23,75
567,851	23,7
568,192	23,64
568,533	23,59
568,874	23,56
569,214	23,56
569,555	23,47
569,895	23,46
570,236	23,41
570,576	23,35
570,917	23,31
571,257	23,26
571,598	23,2
571,938	23,16
572,278	23,13
572,618	23,07
572,959	23,06
573,299	23,01
573,639	22,95
573,979	22,92
574,319	22,88
574,659	22,82
574,999	22,82
575,339	22,81
575,678	22,78
576,018	22,74
576,358	22,7
576,698	22,73
577,037	22,72
577,377	22,71
577,716	22,68
578,056	22,67
578,395	22,65
578,735	22,64
579,074	22,65
579,413	22,6
579,753	22,59
580,092	22,52
580,431	22,51
580,77	22,51
581,109	22,46
581,448	22,44
581,787	22,43
582,126	22,38
582,465	22,37
582,804	22,38
583,143	22,37
583,482	22,31
583,82	22,23
584,159	22,16
584,498	22,13
584,836	22,15
585,175	22,17
585,514	22,15
585,852	22,13
586,19	22,12
586,529	22,13
586,867	22,09
587,205	22,1
587,544	22,1
587,882	22,06
588,22	22,05
588,558	22,03
588,896	22
589,234	21,97
589,572	21,94
589,91	21,95
590,248	21,88
590,586	21,9
590,924	21,9
591,262	21,93
591,599	21,93
591,937	21,89
592,275	21,85
592,612	21,85
592,95	21,81
593,287	21,79
593,625	21,76
593,962	21,77
594,299	21,76
594,637	21,73
594,974	21,73
595,311	21,73
595,648	21,71
595,985	21,73
596,322	21,71
596,659	21,76
596,996	21,72
597,333	21,69
597,67	21,7
598,007	21,7
598,344	21,66
598,681	21,7
599,017	21,64
599,354	21,61
599,691	21,62
600,027	21,65
600,364	21,59
600,7	21,6
601,037	21,56
601,373	21,55
601,71	21,54
602,046	21,55
602,382	21,52
602,718	21,51
603,054	21,48
603,391	21,48
603,727	21,41
604,063	21,42
604,399	21,4
604,735	21,38
605,071	21,36
605,406	21,36
605,742	21,32
606,078	21,34
606,414	21,31
606,749	21,29
607,085	21,27
607,421	21,27
607,756	21,26
608,092	21,23
608,427	21,2
608,762	21,19
609,098	21,16
609,433	21,15
609,768	21,15
610,104	21,15
610,439	21,11
610,774	21,13
611,109	21,09
611,444	21,16
611,779	21,16
612,114	21,12
612,449	21,1
612,784	21,05
613,118	21,05
613,453	21,03
613,788	20,98
614,123	20,91
614,457	20,92
614,792	20,9
615,126	20,9
615,461	20,87
615,795	20,84
616,13	20,78
616,464	20,78
616,798	20,77
617,132	20,73
617,467	20,74
617,801	20,71
618,135	20,71
618,469	20,61
618,803	20,58
619,137	20,59
619,471	20,54
619,805	20,51
620,139	20,49
620,472	20,52
620,806	20,51
621,14	20,49
621,473	20,47
621,807	20,46
622,141	20,47
622,474	20,44
622,808	20,48
623,141	20,48
623,474	20,45
623,808	20,44
624,141	20,43
624,474	20,46
624,807	20,41
625,141	20,37
625,474	20,44
625,807	20,42
626,14	20,37
626,473	20,36
626,806	20,39
627,138	20,38
627,471	20,34
627,804	20,36
628,137	20,43
628,469	20,34
628,802	20,32
629,135	20,31
629,467	20,28
629,8	20,21
630,132	20,19
630,465	20,2
630,797	20,18
631,129	20,15
631,461	20,1
631,794	20,17
632,126	20,12
632,458	20,06
632,79	20,03
633,122	20,06
633,454	20,08
633,786	20,04
634,118	19,99
634,45	20,06
634,781	20,03
635,113	19,95
635,445	19,97
635,777	19,92
636,108	19,85
636,44	19,83
636,771	19,86
637,103	19,83
637,434	19,81
637,765	19,79
638,097	19,85
638,428	19,78
638,759	19,68
639,09	19,7
639,422	19,68
639,753	19,66
640,084	19,59
640,415	19,6
640,746	19,57
641,077	19,5
641,407	19,39
641,738	19,39
642,069	19,37
642,4	19,32
642,73	19,34
643,061	19,35
643,392	19,36
643,722	19,3
644,053	19,26
644,383	19,23
644,713	19,21
645,044	19,09
645,374	19,11
645,704	19,1
646,034	19,06
646,365	19,07
646,695	19,09
647,025	19,13
647,355	19,01
647,685	19,01
