Data from palm_tumV_v_45_25_Reflection_00005.txt Node
Date: Fri Feb 11 15:38:18 ART 2022
User: Nati
Spectrometer: USB2E3644
Trigger mode: 4
Integration Time (sec): 3,520000E-1
Scans to average: 10
Electric dark correction enabled: true
Nonlinearity correction enabled: false
Boxcar width: 10
XAxis mode: Wavelengths
Number of Pixels in Spectrum: 2048
>>>>>Begin Spectral Data<<<<<
178,315	-623,76
178,696	-1227,27
179,076	-530,94
179,457	-847,06
179,838	-193,85
180,218	-108,62
180,599	-202,25
180,979	-214,29
181,36	-78,88
181,74	-38,63
182,121	-93,98
182,501	-351,72
182,881	391,84
183,262	600
183,642	465,31
184,022	271,3
184,402	235,86
184,783	253,21
185,163	144,83
185,543	173,26
185,923	240
186,303	261,18
186,683	256,31
187,063	502,04
187,443	-393,1
187,823	-43,37
188,203	-0
188,583	23,71
188,963	36,03
189,343	72
189,723	107,03
190,102	71,02
190,482	50,13
190,862	43,84
191,242	35,44
191,621	47,91
192,001	51,9
192,38	53,5
192,76	52,14
193,14	51,34
193,519	57,8
193,898	63,04
194,278	56,97
194,657	52,13
195,037	47,31
195,416	39,35
195,795	40,24
196,175	50,34
196,554	52,01
196,933	60,64
197,312	58,76
197,692	41,27
198,071	36,07
198,45	29,14
198,829	33,61
199,208	34,6
199,587	22,69
199,966	17,77
200,345	7,03
200,724	-0
201,103	-12,02
201,482	-25,42
201,86	-29,53
202,239	-25,99
202,618	-40,06
202,997	-32,09
203,375	-26,46
203,754	-26,35
204,133	-44,61
204,511	-20,92
204,89	-15,99
205,269	-23,91
205,647	-18,42
206,026	-18,99
206,404	-15,71
206,782	-48,16
207,161	-52,68
207,539	-60,44
207,918	-80,55
208,296	-104,18
208,674	-100,34
209,052	-100,41
209,431	-163,98
209,809	-3109,09
210,187	1335,48
210,565	2178,95
210,943	539,24
211,321	214,97
211,699	196,1
212,077	268,24
212,455	294,55
212,833	-234,15
213,211	-56,07
213,589	-14,37
213,967	-5,02
214,345	4,77
214,722	1,39
215,1	-5,49
215,478	9,92
215,855	29,1
216,233	42,92
216,611	48,32
216,988	54,63
217,366	57,98
217,743	55,81
218,121	58,71
218,498	72,28
218,876	68,39
219,253	69,69
219,631	65,04
220,008	53,69
220,385	48,99
220,762	46,77
221,14	48,96
221,517	44,08
221,894	49,32
222,271	61,37
222,648	71,41
223,025	84,61
223,402	85,84
223,78	71,02
224,157	65,86
224,533	48,19
224,91	29,64
225,287	22,72
225,664	22,51
226,041	19,03
226,418	6,49
226,795	8,08
227,171	-1,56
227,548	2,99
227,925	10,33
228,301	2,59
228,678	-0,94
229,055	-3,28
229,431	3,76
229,808	11,21
230,184	4,55
230,561	3,85
230,937	2,24
231,313	2,92
231,69	15,51
232,066	20,67
232,442	32,58
232,819	38,92
233,195	41,94
233,571	42,35
233,947	46,71
234,323	53,09
234,699	55,17
235,075	60,69
235,451	61,47
235,827	51,53
236,203	46,67
236,579	43,01
236,955	44,14
237,331	47,24
237,707	37,93
238,083	38,23
238,459	35,2
238,834	31,28
239,21	31,47
239,586	29,24
239,961	26,29
240,337	22,98
240,713	22,13
241,088	22,05
241,464	23,92
241,839	22,88
242,215	21,2
242,59	20,46
242,965	20,61
243,341	20,96
243,716	21,22
244,091	21,71
244,467	21,6
244,842	21,97
245,217	21,58
245,592	22,38
245,967	20,96
246,343	21,52
246,718	22,62
247,093	22,34
247,468	21,98
247,843	21,44
248,218	22,53
248,593	22,78
248,967	22,67
249,342	21,02
249,717	20,91
250,092	20,74
250,467	20,7
250,841	20,15
251,216	19,96
251,591	20,27
251,965	21,29
252,34	21,53
252,714	21,88
253,089	23,44
253,463	23,33
253,838	23,58
254,212	23
254,587	22,07
254,961	21,71
255,335	21,31
255,71	21,33
256,084	19,32
256,458	18,53
256,832	18,86
257,206	19,69
257,581	19,9
257,955	19,96
258,329	20,51
258,703	20,65
259,077	20,48
259,451	20,18
259,825	19,69
260,199	19,3
260,572	18,39
260,946	17,51
261,32	18,02
261,694	19,09
262,068	19,37
262,441	19,24
262,815	19,23
263,189	19,3
263,562	19,31
263,936	19,8
264,309	20,51
264,683	21,31
265,056	21,96
265,43	21,74
265,803	21,37
266,176	20,97
266,55	20,73
266,923	20,84
267,296	20,92
267,67	21,58
268,043	22,01
268,416	22,28
268,789	21,98
269,162	21,75
269,535	21,21
269,908	21,43
270,281	21,46
270,654	21,65
271,027	21,63
271,4	21,98
271,773	21,81
272,146	21,58
272,519	21,09
272,891	20,76
273,264	20,89
273,637	21,45
274,01	21,3
274,382	21,52
274,755	21,65
275,127	22,03
275,5	21,4
275,872	21,22
276,245	21,12
276,617	21,4
276,99	21,26
277,362	20,85
277,734	20,62
278,107	20,28
278,479	19,93
278,851	19,64
279,223	19,54
279,596	19,92
279,968	20,02
280,34	20,44
280,712	20,8
281,084	20,95
281,456	20,84
281,828	20,8
282,2	20,93
282,572	20,7
282,944	20,57
283,315	20,6
283,687	20,41
284,059	20,5
284,431	20,35
284,802	20,03
285,174	20,3
285,546	19,99
285,917	19,9
286,289	19,78
286,66	19,62
287,032	19,33
287,403	19,2
287,775	19
288,146	18,7
288,518	18,24
288,889	17,89
289,26	17,51
289,632	17,28
290,003	16,8
290,374	16,47
290,745	15,94
291,116	15,86
291,487	15,71
291,858	15,74
292,229	15,87
292,6	16,11
292,971	16,28
293,342	16,47
293,713	16,48
294,084	16,83
294,455	17,21
294,826	17,58
295,196	17,77
295,567	18,07
295,938	18,03
296,308	18,27
296,679	18,67
297,05	18,94
297,42	19,15
297,791	19,12
298,161	18,94
298,532	19,06
298,902	18,95
299,272	19,4
299,643	19,48
300,013	19,59
300,383	19,51
300,754	19,16
301,124	19,03
301,494	19,16
301,864	18,78
302,234	18,42
302,604	18,23
302,974	18,42
303,344	18,31
303,714	18,32
304,084	18,26
304,454	18,11
304,824	18,19
305,194	18,21
305,563	18,42
305,933	18,9
306,303	19,24
306,673	19,54
307,042	19,31
307,412	19,3
307,781	19,2
308,151	19,3
308,521	19,37
308,89	19,49
309,259	19,44
309,629	19,53
309,998	19,67
310,368	19,75
310,737	19,39
311,106	19,3
311,475	19,2
311,845	19,16
312,214	19,11
312,583	18,88
312,952	18,79
313,321	18,67
313,69	18,59
314,059	18,48
314,428	18,31
314,797	18,33
315,166	18,15
315,535	17,97
315,904	17,79
316,272	17,89
316,641	17,69
317,01	17,69
317,379	17,82
317,747	17,63
318,116	17,38
318,484	17,37
318,853	17,14
319,221	16,94
319,59	16,9
319,958	16,72
320,327	16,78
320,695	16,54
321,063	16,14
321,432	15,99
321,8	15,79
322,168	15,87
322,536	15,86
322,905	16
323,273	16,24
323,641	16,29
324,009	16,25
324,377	16,48
324,745	16,68
325,113	16,71
325,481	16,65
325,849	16,59
326,216	16,52
326,584	16,55
326,952	16,62
327,32	16,57
327,687	16,51
328,055	16,47
328,423	16,72
328,79	17,13
329,158	17,12
329,525	17,08
329,893	16,95
330,26	17
330,628	16,87
330,995	16,61
331,362	16,7
331,73	16,71
332,097	16,61
332,464	16,35
332,831	16,28
333,199	16,24
333,566	16,29
333,933	16,38
334,3	16,44
334,667	16,43
335,034	16,37
335,401	16,58
335,768	16,58
336,135	16,37
336,502	16,07
336,868	16,14
337,235	16,06
337,602	16,01
337,969	15,86
338,335	15,9
338,702	16
339,069	15,87
339,435	15,86
339,802	15,77
340,168	15,82
340,535	15,69
340,901	15,62
341,267	15,68
341,634	15,67
342	15,63
342,366	15,67
342,733	15,58
343,099	15,38
343,465	15,31
343,831	15,39
344,197	15,54
344,563	15,52
344,929	15,43
345,295	15,45
345,661	15,32
346,027	15,35
346,393	15,38
346,759	15,35
347,125	15,21
347,491	15,15
347,856	15,15
348,222	15,24
348,588	15,29
348,953	15,22
349,319	15,18
349,684	15,15
350,05	15,12
350,415	15,17
350,781	15,26
351,146	15,18
351,512	15,09
351,877	14,92
352,242	14,77
352,608	14,84
352,973	14,78
353,338	14,88
353,703	14,87
354,068	14,78
354,433	14,82
354,798	14,97
355,164	15,09
355,528	15,14
355,893	15,12
356,258	15,16
356,623	15,09
356,988	15,11
357,353	15,04
357,718	15
358,082	15,05
358,447	14,98
358,812	15,04
359,176	15,15
359,541	15,17
359,905	15,15
360,27	15,19
360,634	15,17
360,999	15,2
361,363	15,17
361,728	15,24
362,092	15,21
362,456	15,17
362,821	15,06
363,185	14,95
363,549	14,89
363,913	14,88
364,277	14,98
364,641	14,95
365,005	15,02
365,369	15,03
365,733	14,94
366,097	14,89
366,461	14,88
366,825	14,78
367,189	14,81
367,553	14,87
367,916	14,88
368,28	14,85
368,644	14,8
369,007	14,86
369,371	14,89
369,734	14,92
370,098	14,88
370,461	14,91
370,825	14,95
371,188	15
371,552	14,97
371,915	14,97
372,278	14,96
372,642	14,96
373,005	14,99
373,368	14,98
373,731	15
374,094	14,95
374,457	14,91
374,82	14,92
375,183	14,91
375,546	14,83
375,909	14,87
376,272	14,82
376,635	14,72
376,998	14,61
377,361	14,51
377,723	14,5
378,086	14,48
378,449	14,45
378,811	14,47
379,174	14,46
379,537	14,38
379,899	14,32
380,262	14,36
380,624	14,32
380,987	14,32
381,349	14,36
381,711	14,37
382,074	14,4
382,436	14,4
382,798	14,57
383,16	14,54
383,522	14,49
383,884	14,56
384,247	14,64
384,609	14,65
384,971	14,72
385,333	14,7
385,695	14,69
386,056	14,67
386,418	14,58
386,78	14,67
387,142	14,63
387,504	14,66
387,865	14,54
388,227	14,5
388,589	14,56
388,95	14,57
389,312	14,59
389,673	14,66
390,035	14,65
390,396	14,5
390,758	14,52
391,119	14,53
391,48	14,49
391,842	14,45
392,203	14,4
392,564	14,38
392,925	14,41
393,286	14,41
393,648	14,38
394,009	14,4
394,37	14,32
394,731	14,37
395,092	14,36
395,452	14,4
395,813	14,41
396,174	14,34
396,535	14,32
396,896	14,28
397,257	14,22
397,617	14,21
397,978	14,27
398,338	14,24
398,699	14,27
399,06	14,31
399,42	14,24
399,781	14,32
400,141	14,31
400,501	14,28
400,862	14,29
401,222	14,28
401,582	14,29
401,943	14,32
402,303	14,34
402,663	14,35
403,023	14,37
403,383	14,39
403,743	14,41
404,103	14,41
404,463	14,42
404,823	14,44
405,183	14,42
405,543	14,36
405,903	14,41
406,262	14,39
406,622	14,35
406,982	14,41
407,342	14,41
407,701	14,41
408,061	14,45
408,42	14,48
408,78	14,48
409,139	14,51
409,499	14,51
409,858	14,49
410,217	14,45
410,577	14,43
410,936	14,44
411,295	14,46
411,655	14,44
412,014	14,49
412,373	14,48
412,732	14,46
413,091	14,46
413,45	14,48
413,809	14,46
414,168	14,45
414,527	14,43
414,886	14,43
415,245	14,45
415,603	14,45
415,962	14,45
416,321	14,47
416,679	14,46
417,038	14,45
417,397	14,45
417,755	14,46
418,114	14,47
418,472	14,46
418,831	14,47
419,189	14,47
419,547	14,45
419,906	14,48
420,264	14,48
420,622	14,51
420,981	14,5
421,339	14,53
421,697	14,55
422,055	14,57
422,413	14,59
422,771	14,6
423,129	14,61
423,487	14,62
423,845	14,65
424,203	14,66
424,56	14,69
424,918	14,7
425,276	14,74
425,634	14,78
425,991	14,82
426,349	14,85
426,707	14,89
427,064	14,94
427,422	14,97
427,779	15,07
428,137	15,1
428,494	15,19
428,851	15,25
429,209	15,3
429,566	15,39
429,923	15,43
430,28	15,5
430,637	15,57
430,995	15,59
431,352	15,63
431,709	15,69
432,066	15,77
432,423	15,83
432,78	15,87
433,137	15,9
433,493	15,95
433,85	16,02
434,207	16,03
434,564	16,08
434,92	16,11
435,277	16,15
435,634	16,21
435,99	16,25
436,347	16,3
436,703	16,38
437,06	16,4
437,416	16,45
437,773	16,49
438,129	16,53
438,485	16,63
438,841	16,64
439,198	16,67
439,554	16,67
439,91	16,71
440,266	16,75
440,622	16,79
440,978	16,82
441,334	16,84
441,69	16,91
442,046	16,96
442,402	17,02
442,758	17,05
443,113	17,09
443,469	17,15
443,825	17,19
444,181	17,23
444,536	17,28
444,892	17,32
445,247	17,35
445,603	17,38
445,958	17,39
446,314	17,43
446,669	17,46
447,025	17,5
447,38	17,51
447,735	17,53
448,09	17,56
448,446	17,6
448,801	17,62
449,156	17,66
449,511	17,7
449,866	17,74
450,221	17,81
450,576	17,84
450,931	17,89
451,286	17,94
451,641	17,96
451,995	18,03
452,35	18,07
452,705	18,1
453,06	18,12
453,414	18,16
453,769	18,2
454,123	18,25
454,478	18,28
454,832	18,34
455,187	18,34
455,541	18,38
455,896	18,4
456,25	18,43
456,604	18,44
456,958	18,45
457,313	18,45
457,667	18,46
458,021	18,48
458,375	18,48
458,729	18,47
459,083	18,5
459,437	18,5
459,791	18,51
460,145	18,54
460,499	18,56
460,852	18,56
461,206	18,58
461,56	18,58
461,914	18,6
462,267	18,59
462,621	18,64
462,974	18,64
463,328	18,66
463,681	18,67
464,035	18,7
464,388	18,72
464,742	18,75
465,095	18,77
465,448	18,8
465,801	18,8
466,155	18,82
466,508	18,84
466,861	18,84
467,214	18,84
467,567	18,85
467,92	18,84
468,273	18,86
468,626	18,86
468,979	18,84
469,332	18,82
469,684	18,82
470,037	18,83
470,39	18,85
470,743	18,86
471,095	18,89
471,448	18,89
471,8	18,89
472,153	18,9
472,505	18,9
472,858	18,88
473,21	18,89
473,562	18,93
473,915	18,92
474,267	18,96
474,619	18,97
474,971	18,94
475,324	18,94
475,676	18,97
476,028	18,97
476,38	18,96
476,732	18,97
477,084	18,97
477,436	18,97
477,787	18,95
478,139	18,94
478,491	18,95
478,843	18,94
479,195	18,97
479,546	18,94
479,898	18,97
480,249	19,05
480,601	19,14
480,952	19,17
481,304	19,19
481,655	19,19
482,007	19,19
482,358	19,2
482,709	19,21
483,061	19,2
483,412	19,18
483,763	19,19
484,114	19,2
484,465	19,2
484,816	19,2
485,167	19,21
485,518	19,22
485,869	19,22
486,22	19,24
486,571	19,24
486,922	19,26
487,272	19,25
487,623	19,22
487,974	19,19
488,324	19,18
488,675	19,17
489,025	19,17
489,376	19,16
489,726	19,18
490,077	19,18
490,427	19,19
490,778	19,22
491,128	19,24
491,478	19,25
491,828	19,27
492,179	19,27
492,529	19,28
492,879	19,29
493,229	19,3
493,579	19,31
493,929	19,32
494,279	19,33
494,629	19,35
494,979	19,38
495,328	19,4
495,678	19,42
496,028	19,47
496,378	19,51
496,727	19,57
497,077	19,61
497,426	19,65
497,776	19,66
498,125	19,7
498,475	19,72
498,824	19,77
499,174	19,79
499,523	19,84
499,872	19,89
500,221	19,96
500,571	20
500,92	20,06
501,269	20,12
501,618	20,17
501,967	20,21
502,316	20,23
502,665	20,28
503,014	20,33
503,363	20,34
503,711	20,37
504,06	20,43
504,409	20,46
504,758	20,48
505,106	20,57
505,455	20,61
505,803	20,66
506,152	20,7
506,5	20,75
506,849	20,8
507,197	20,84
507,546	20,86
507,894	20,93
508,242	20,97
508,59	21
508,939	21,06
509,287	21,11
509,635	21,18
509,983	21,24
510,331	21,27
510,679	21,35
511,027	21,39
511,375	21,44
511,723	21,5
512,07	21,55
512,418	21,6
512,766	21,68
513,114	21,74
513,461	21,82
513,809	21,89
514,156	21,95
514,504	22,04
514,851	22,11
515,199	22,18
515,546	22,27
515,893	22,37
516,241	22,45
516,588	22,53
516,935	22,58
517,282	22,63
517,63	22,69
517,977	22,75
518,324	22,81
518,671	22,87
519,018	22,92
519,365	23
519,711	23,06
520,058	23,11
520,405	23,17
520,752	23,23
521,099	23,27
521,445	23,37
521,792	23,42
522,138	23,5
522,485	23,57
522,832	23,62
523,178	23,7
523,524	23,76
523,871	23,83
524,217	23,91
524,563	23,99
524,91	24,09
525,256	24,24
525,602	24,36
525,948	24,45
526,294	24,53
526,64	24,54
526,986	24,58
527,332	24,6
527,678	24,63
528,024	24,66
528,37	24,71
528,716	24,73
529,061	24,76
529,407	24,8
529,753	24,85
530,098	24,89
530,444	24,93
530,789	24,95
531,135	24,96
531,48	24,99
531,826	25,02
532,171	25,05
532,516	25,04
532,862	25,04
533,207	25,04
533,552	25,05
533,897	25,1
534,242	25,12
534,587	25,15
534,932	25,2
535,277	25,2
535,622	25,2
535,967	25,22
536,312	25,27
536,657	25,28
537,001	25,31
537,346	25,33
537,691	25,37
538,035	25,42
538,38	25,48
538,724	25,5
539,069	25,51
539,413	25,53
539,758	25,56
540,102	25,6
540,446	25,6
540,791	25,61
541,135	25,62
541,479	25,64
541,823	25,63
542,167	25,62
542,512	25,67
542,856	25,66
543,2	25,68
543,543	25,68
543,887	25,7
544,231	25,71
544,575	25,73
544,919	25,72
545,262	25,73
545,606	25,75
545,95	25,77
546,293	25,8
546,637	25,82
546,98	25,82
547,324	25,8
547,667	25,85
548,011	25,88
548,354	25,9
548,697	25,9
549,04	25,92
549,384	25,93
549,727	25,9
550,07	25,96
550,413	25,92
550,756	25,94
551,099	25,95
551,442	25,94
551,785	25,96
552,128	25,97
552,47	25,97
552,813	25,97
553,156	25,97
553,499	25,96
553,841	25,96
554,184	25,96
554,526	25,97
554,869	25,92
555,211	25,93
555,554	25,94
555,896	25,93
556,238	25,94
556,581	25,94
556,923	25,93
557,265	25,95
557,607	25,95
557,949	25,95
558,291	25,92
558,633	25,9
558,975	25,85
559,317	25,82
559,659	25,82
560,001	25,79
560,343	25,79
560,685	25,79
561,026	25,77
561,368	25,77
561,71	25,76
562,051	25,72
562,393	25,72
562,734	25,61
563,076	25,58
563,417	25,55
563,759	25,53
564,1	25,52
564,441	25,48
564,782	25,44
565,124	25,4
565,465	25,35
565,806	25,32
566,147	25,33
566,488	25,32
566,829	25,27
567,17	25,26
567,511	25,22
567,851	25,18
568,192	25,13
568,533	25,08
568,874	25,06
569,214	25,05
569,555	24,99
569,895	25,02
570,236	24,99
570,576	24,93
570,917	24,88
571,257	24,84
571,598	24,8
571,938	24,74
572,278	24,72
572,618	24,68
572,959	24,67
573,299	24,61
573,639	24,59
573,979	24,56
574,319	24,5
574,659	24,48
574,999	24,44
575,339	24,41
575,678	24,39
576,018	24,33
576,358	24,29
576,698	24,27
577,037	24,24
577,377	24,22
577,716	24,21
578,056	24,2
578,395	24,17
578,735	24,15
579,074	24,14
579,413	24,08
579,753	24,08
580,092	24,04
580,431	24,05
580,77	24,03
581,109	24,03
581,448	24,02
581,787	24
582,126	24,01
582,465	24,03
582,804	24,02
583,143	24,04
583,482	23,99
583,82	23,96
584,159	23,92
584,498	23,9
584,836	23,88
585,175	23,86
585,514	23,85
585,852	23,84
586,19	23,86
586,529	23,87
586,867	23,83
587,205	23,81
587,544	23,79
587,882	23,74
588,22	23,7
588,558	23,68
588,896	23,66
589,234	23,61
589,572	23,59
589,91	23,57
590,248	23,52
590,586	23,53
590,924	23,54
591,262	23,56
591,599	23,55
591,937	23,57
592,275	23,55
592,612	23,53
592,95	23,49
593,287	23,48
593,625	23,43
593,962	23,43
594,299	23,43
594,637	23,41
594,974	23,41
595,311	23,4
595,648	23,41
595,985	23,4
596,322	23,38
596,659	23,39
596,996	23,39
597,333	23,36
597,67	23,36
598,007	23,37
598,344	23,33
598,681	23,36
599,017	23,29
599,354	23,26
599,691	23,26
600,027	23,26
600,364	23,21
600,7	23,21
601,037	23,18
601,373	23,15
601,71	23,12
602,046	23,11
602,382	23,09
602,718	23,07
603,054	23,04
603,391	23,03
603,727	22,99
604,063	23,02
604,399	23
604,735	22,96
605,071	22,92
605,406	22,92
605,742	22,87
606,078	22,87
606,414	22,85
606,749	22,82
607,085	22,78
607,421	22,78
607,756	22,77
608,092	22,73
608,427	22,7
608,762	22,72
609,098	22,72
609,433	22,72
609,768	22,68
610,104	22,69
610,439	22,65
610,774	22,69
611,109	22,59
611,444	22,61
611,779	22,63
612,114	22,57
612,449	22,54
612,784	22,51
613,118	22,49
613,453	22,49
613,788	22,43
614,123	22,39
614,457	22,38
614,792	22,38
615,126	22,39
615,461	22,34
615,795	22,31
616,13	22,26
616,464	22,21
616,798	22,19
617,132	22,15
617,467	22,15
617,801	22,09
618,135	22,14
618,469	22,09
618,803	22,04
619,137	22,04
619,471	22,01
619,805	21,96
620,139	21,91
620,472	21,88
620,806	21,91
621,14	21,89
621,473	21,88
621,807	21,83
622,141	21,84
622,474	21,83
622,808	21,82
623,141	21,84
623,474	21,82
623,808	21,81
624,141	21,79
624,474	21,79
624,807	21,73
625,141	21,65
625,474	21,71
625,807	21,73
626,14	21,7
626,473	21,73
626,806	21,77
627,138	21,82
627,471	21,77
627,804	21,77
628,137	21,84
628,469	21,76
628,802	21,76
629,135	21,71
629,467	21,71
629,8	21,69
630,132	21,61
630,465	21,6
630,797	21,63
631,129	21,61
631,461	21,57
631,794	21,68
632,126	21,67
632,458	21,6
632,79	21,55
633,122	21,58
633,454	21,55
633,786	21,5
634,118	21,48
634,45	21,55
634,781	21,56
635,113	21,5
635,445	21,53
635,777	21,5
636,108	21,48
636,44	21,47
636,771	21,46
637,103	21,44
637,434	21,42
637,765	21,38
638,097	21,47
638,428	21,41
638,759	21,29
639,09	21,28
639,422	21,27
639,753	21,3
640,084	21,24
640,415	21,22
640,746	21,21
641,077	21,12
641,407	21,05
641,738	20,97
642,069	20,89
642,4	20,88
642,73	20,88
643,061	20,85
643,392	20,84
643,722	20,82
644,053	20,82
644,383	20,81
644,713	20,73
645,044	20,56
645,374	20,64
645,704	20,63
646,034	20,6
646,365	20,58
646,695	20,54
647,025	20,56
647,355	20,49
647,685	20,42
648,015	20,44
648,344	20,43
648,674	20,42
649,004	20,42
649,334	20,38
649,663	20,35
649,993	20,37
650,323	20,37
