Data from palm_camino1_d_45_25_Reflection_00005.txt Node
Date: Fri Feb 11 15:49:50 ART 2022
User: Nati
Spectrometer: USB2E3644
Trigger mode: 4
Integration Time (sec): 3,520000E-1
Scans to average: 10
Electric dark correction enabled: true
Nonlinearity correction enabled: false
Boxcar width: 10
XAxis mode: Wavelengths
Number of Pixels in Spectrum: 2048
>>>>>Begin Spectral Data<<<<<
178,315	24,42
178,696	-25,53
179,076	-12,57
179,457	15
179,838	-0
180,218	420
180,599	600
180,979	-13,89
181,36	226,6
181,74	214,29
182,121	232,84
182,501	332,73
182,881	354,55
183,262	180
183,642	171,95
184,022	119,42
184,402	196,88
184,783	276,92
185,163	351,92
185,543	510,81
185,923	276,56
186,303	191,21
186,683	257,14
187,063	237,36
187,443	262,5
187,823	273,63
188,203	351,43
188,583	581,63
188,963	360,76
189,343	370,91
189,723	-2100
190,102	-354,55
190,482	-277,36
190,862	-309,23
191,242	-234,65
191,621	-242,73
192,001	-262,83
192,38	-294,39
192,76	-201,43
193,14	-168,29
193,519	-183,87
193,898	-112,5
194,278	-69,1
194,657	-59,38
195,037	-51,17
195,416	-59,62
195,795	-48,99
196,175	-37,31
196,554	-32,57
196,933	-29,77
197,312	-38,56
197,692	-33,85
198,071	-26,03
198,45	-18,57
198,829	-10,36
199,208	-11,12
199,587	-17,96
199,966	-24,65
200,345	-28,72
200,724	-40,46
201,103	-41,42
201,482	-35,45
201,86	-38,39
202,239	-39,45
202,618	-37,23
202,997	-32,69
203,375	-34,26
203,754	-37,11
204,133	-50,08
204,511	-45,28
204,89	-40,06
205,269	-29,16
205,647	-28,66
206,026	-32,2
206,404	-34,07
206,782	-29,48
207,161	-22,08
207,539	-13,11
207,918	-5,06
208,296	2,06
208,674	5,64
209,052	6,17
209,431	1,4
209,809	-8,67
210,187	-16,04
210,565	-8,81
210,943	-10,14
211,321	-1,24
211,699	-0
212,077	3,17
212,455	-1,29
212,833	-1,7
213,211	-9,92
213,589	-17,11
213,967	-26,93
214,345	-36,98
214,722	-43,6
215,1	-57,28
215,478	-73,12
215,855	-75,89
216,233	-88,1
216,611	-100,27
216,988	-102,74
217,366	-124,23
217,743	-104,69
218,121	-95,22
218,498	-121,9
218,876	-127,09
219,253	-129,14
219,631	-155,33
220,008	-179,02
220,385	-191,55
220,762	-233,08
221,14	-194,59
221,517	-160,65
221,894	-122,86
222,271	-112,42
222,648	-114,55
223,025	-111,21
223,402	-116,7
223,78	-114,92
224,157	-116,38
224,533	-116,39
224,91	-106,68
225,287	-80,87
225,664	-71,33
226,041	-57,03
226,418	-56,97
226,795	-56,6
227,171	-63,69
227,548	-50,72
227,925	-39,24
228,301	-35,65
228,678	-31,74
229,055	-27,47
229,431	-28,71
229,808	-30,39
230,184	-29,82
230,561	-28,31
230,937	-24,27
231,313	-16,23
231,69	-12,01
232,066	-8,72
232,442	-4,41
232,819	-2,14
233,195	-5,19
233,571	-11,26
233,947	-18,67
234,323	-13,5
234,699	-7,83
235,075	-2,73
235,451	-4,34
235,827	-5,94
236,203	-5,52
236,579	-7,68
236,955	-11,24
237,331	-13,5
237,707	-10,63
238,083	-6,39
238,459	-6,07
238,834	-3,32
239,21	-4,36
239,586	-1,95
239,961	-0,17
240,337	0,49
240,713	-0,16
241,088	0,62
241,464	3
241,839	5,82
242,215	7,4
242,59	6,65
242,965	7,52
243,341	10,69
243,716	12,08
244,091	13,34
244,467	14,64
244,842	15,2
245,217	16,19
245,592	16,83
245,967	17,43
246,343	17,79
246,718	17,68
247,093	18,39
247,468	18,52
247,843	19,64
248,218	20,91
248,593	21,62
248,967	21,22
249,342	21,62
249,717	21,9
250,092	21,76
250,467	22,26
250,841	23,49
251,216	23,67
251,591	23,92
251,965	23,59
252,34	23,25
252,714	23,19
253,089	23,15
253,463	22,32
253,838	21,38
254,212	21
254,587	20,02
254,961	19,17
255,335	18,82
255,71	18,55
256,084	18,38
256,458	18,92
256,832	20,27
257,206	20,55
257,581	20,23
257,955	20,15
258,329	20,47
258,703	20,14
259,077	20,09
259,451	19,93
259,825	20,24
260,199	20,16
260,572	19,86
260,946	19,92
261,32	20,25
261,694	20,65
262,068	20,74
262,441	21,01
262,815	21,65
263,189	21,64
263,562	21,54
263,936	21,43
264,309	20,95
264,683	20,46
265,056	20,47
265,43	21,06
265,803	21,36
266,176	21,15
266,55	21,1
266,923	21,55
267,296	21,36
267,67	21,56
268,043	21,59
268,416	21,63
268,789	21,39
269,162	21,1
269,535	21,71
269,908	22,04
270,281	21,84
270,654	21,49
271,027	21,12
271,4	20,86
271,773	20,67
272,146	20,53
272,519	20,09
272,891	19,58
273,264	18,81
273,637	18,25
274,01	18,28
274,382	18,21
274,755	17,66
275,127	17,5
275,5	17,35
275,872	17,83
276,245	18,46
276,617	18,98
276,99	18,86
277,362	17,84
277,734	17,13
278,107	17,21
278,479	17,06
278,851	17,33
279,223	17,51
279,596	17,47
279,968	17,85
280,34	18,26
280,712	18,55
281,084	19,02
281,456	18,97
281,828	19,06
282,2	19,07
282,572	19,16
282,944	19,37
283,315	19,36
283,687	19,21
284,059	19,16
284,431	19,15
284,802	19,13
285,174	19,09
285,546	19,32
285,917	19,68
286,289	19,79
286,66	19,91
287,032	19,77
287,403	19,97
287,775	20,18
288,146	20,23
288,518	20,19
288,889	19,9
289,26	20,01
289,632	20,18
290,003	20,47
290,374	20,72
290,745	20,46
291,116	20,18
291,487	20,13
291,858	19,84
292,229	19,41
292,6	19,46
292,971	19,48
293,342	19,26
293,713	19,06
294,084	19,06
294,455	18,96
294,826	18,98
295,196	18,87
295,567	18,58
295,938	18,49
296,308	18,45
296,679	18,62
297,05	18,97
297,42	18,82
297,791	18,69
298,161	18,4
298,532	18,55
298,902	18,71
299,272	18,81
299,643	19,04
300,013	19,34
300,383	19,61
300,754	19,77
301,124	19,84
301,494	19,59
301,864	19,58
302,234	19,58
302,604	19,31
302,974	19,09
303,344	19,07
303,714	18,99
304,084	18,9
304,454	18,93
304,824	18,51
305,194	18,14
305,563	17,8
305,933	17,83
306,303	18,05
306,673	18,04
307,042	18,08
307,412	17,95
307,781	17,84
308,151	17,72
308,521	17,94
308,89	18,02
309,259	18,33
309,629	18,29
309,998	18,25
310,368	18,43
310,737	18,64
311,106	18,6
311,475	18,53
311,845	18,67
312,214	18,84
312,583	19,03
312,952	19,29
313,321	19,43
313,69	19,65
314,059	19,61
314,428	19,69
314,797	19,66
315,166	19,74
315,535	19,76
315,904	19,7
316,272	19,4
316,641	19,3
317,01	18,97
317,379	18,78
317,747	18,8
318,116	18,93
318,484	18,92
318,853	18,88
319,221	18,75
319,59	18,45
319,958	18,19
320,327	18,09
320,695	17,99
321,063	18,13
321,432	18,16
321,8	17,88
322,168	17,58
322,536	17,52
322,905	17,39
323,273	17,43
323,641	17,46
324,009	17,38
324,377	17,35
324,745	17,43
325,113	17,53
325,481	17,5
325,849	17,32
326,216	17,22
326,584	17,38
326,952	17,53
327,32	17,49
327,687	17,47
328,055	17,2
328,423	16,96
328,79	16,91
329,158	16,8
329,525	17,03
329,893	17,3
330,26	17,55
330,628	17,52
330,995	17,41
331,362	17,25
331,73	17,23
332,097	17,24
332,464	17,1
332,831	17,07
333,199	17,1
333,566	17,4
333,933	17,46
334,3	17,26
334,667	17,23
335,034	17,42
335,401	17,54
335,768	17,64
336,135	17,7
336,502	17,71
336,868	17,64
337,235	17,46
337,602	17,21
337,969	16,92
338,335	16,81
338,702	16,69
339,069	16,84
339,435	16,95
339,802	16,98
340,168	17,08
340,535	17,11
340,901	16,96
341,267	16,75
341,634	16,65
342	16,64
342,366	16,65
342,733	16,62
343,099	16,54
343,465	16,51
343,831	16,49
344,197	16,43
344,563	16,44
344,929	16,42
345,295	16,41
345,661	16,45
346,027	16,7
346,393	16,77
346,759	16,67
347,125	16,62
347,491	16,55
347,856	16,57
348,222	16,57
348,588	16,54
348,953	16,49
349,319	16,43
349,684	16,43
350,05	16,35
350,415	16,16
350,781	16,17
351,146	16,22
351,512	16,24
351,877	16,15
352,242	16,09
352,608	16,13
352,973	16,23
353,338	16,26
353,703	16,13
354,068	16,14
354,433	16,08
354,798	15,96
355,164	15,91
355,528	15,84
355,893	15,76
356,258	15,82
356,623	15,89
356,988	15,89
357,353	15,89
357,718	15,89
358,082	15,97
358,447	15,94
358,812	15,9
359,176	15,94
359,541	15,92
359,905	15,93
360,27	15,89
360,634	15,86
360,999	15,75
361,363	15,67
361,728	15,62
362,092	15,68
362,456	15,77
362,821	15,8
363,185	15,78
363,549	15,83
363,913	15,82
364,277	15,71
364,641	15,73
365,005	15,74
365,369	15,69
365,733	15,61
366,097	15,57
366,461	15,64
366,825	15,58
367,189	15,64
367,553	15,65
367,916	15,63
368,28	15,64
368,644	15,6
369,007	15,61
369,371	15,62
369,734	15,57
370,098	15,58
370,461	15,54
370,825	15,55
371,188	15,52
371,552	15,45
371,915	15,48
372,278	15,46
372,642	15,39
373,005	15,44
373,368	15,42
373,731	15,4
374,094	15,28
374,457	15,29
374,82	15,31
375,183	15,24
375,546	15,22
375,909	15,18
376,272	15,26
376,635	15,26
376,998	15,16
377,361	15,11
377,723	15,05
378,086	15,07
378,449	15,05
378,811	15,04
379,174	15,1
379,537	15,09
379,899	15,11
380,262	15,21
380,624	15,17
380,987	15,22
381,349	15,27
381,711	15,34
382,074	15,34
382,436	15,34
382,798	15,47
383,16	15,39
383,522	15,29
383,884	15,22
384,247	15,2
384,609	15,24
384,971	15,32
385,333	15,29
385,695	15,27
386,056	15,29
386,418	15,3
386,78	15,38
387,142	15,33
387,504	15,29
387,865	15,23
388,227	15,26
388,589	15,31
388,95	15,28
389,312	15,25
389,673	15,28
390,035	15,25
390,396	15,19
390,758	15,27
391,119	15,38
391,48	15,42
391,842	15,47
392,203	15,51
392,564	15,52
392,925	15,57
393,286	15,56
393,648	15,6
394,009	15,62
394,37	15,55
394,731	15,61
395,092	15,64
395,452	15,68
395,813	15,68
396,174	15,63
396,535	15,66
396,896	15,65
397,257	15,63
397,617	15,65
397,978	15,74
398,338	15,72
398,699	15,73
399,06	15,82
399,42	15,78
399,781	15,85
400,141	15,79
400,501	15,81
400,862	15,9
401,222	15,86
401,582	15,9
401,943	15,92
402,303	15,92
402,663	15,95
403,023	15,98
403,383	16,01
403,743	16,08
404,103	16,11
404,463	16,18
404,823	16,2
405,183	16,25
405,543	16,19
405,903	16,2
406,262	16,16
406,622	16,15
406,982	16,23
407,342	16,21
407,701	16,3
408,061	16,34
408,42	16,32
408,78	16,38
409,139	16,4
409,499	16,42
409,858	16,46
410,217	16,5
410,577	16,54
410,936	16,57
411,295	16,59
411,655	16,64
412,014	16,68
412,373	16,74
412,732	16,77
413,091	16,86
413,45	16,95
413,809	17,05
414,168	17,09
414,527	17,09
414,886	17,11
415,245	17,14
415,603	17,19
415,962	17,27
416,321	17,3
416,679	17,34
417,038	17,37
417,397	17,41
417,755	17,46
418,114	17,5
418,472	17,55
418,831	17,59
419,189	17,6
419,547	17,63
419,906	17,69
420,264	17,71
420,622	17,74
420,981	17,77
421,339	17,81
421,697	17,85
422,055	17,91
422,413	17,96
422,771	18
423,129	18,04
423,487	18,06
423,845	18,1
424,203	18,12
424,56	18,17
424,918	18,22
425,276	18,26
425,634	18,3
425,991	18,32
426,349	18,36
426,707	18,43
427,064	18,46
427,422	18,48
427,779	18,56
428,137	18,61
428,494	18,69
428,851	18,73
429,209	18,8
429,566	18,83
429,923	18,87
430,28	18,93
430,637	19
430,995	19,03
431,352	19,08
431,709	19,14
432,066	19,18
432,423	19,21
432,78	19,24
433,137	19,26
433,493	19,31
433,85	19,36
434,207	19,36
434,564	19,37
434,92	19,39
435,277	19,4
435,634	19,41
435,99	19,41
436,347	19,47
436,703	19,52
437,06	19,58
437,416	19,62
437,773	19,65
438,129	19,63
438,485	19,68
438,841	19,68
439,198	19,69
439,554	19,71
439,91	19,72
440,266	19,73
440,622	19,76
440,978	19,76
441,334	19,77
441,69	19,82
442,046	19,87
442,402	19,92
442,758	19,95
443,113	19,98
443,469	20,02
443,825	20,01
444,181	20,02
444,536	20,03
444,892	20,04
445,247	20,05
445,603	20,08
445,958	20,07
446,314	20,08
446,669	20,1
447,025	20,11
447,38	20,13
447,735	20,16
448,09	20,18
448,446	20,2
448,801	20,22
449,156	20,23
449,511	20,24
449,866	20,26
450,221	20,27
450,576	20,31
450,931	20,32
451,286	20,35
451,641	20,36
451,995	20,37
452,35	20,41
452,705	20,42
453,06	20,43
453,414	20,47
453,769	20,49
454,123	20,51
454,478	20,54
454,832	20,57
455,187	20,55
455,541	20,55
455,896	20,56
456,25	20,59
456,604	20,61
456,958	20,59
457,313	20,58
457,667	20,58
458,021	20,58
458,375	20,6
458,729	20,62
459,083	20,61
459,437	20,63
459,791	20,62
460,145	20,62
460,499	20,62
460,852	20,61
461,206	20,62
461,56	20,63
461,914	20,63
462,267	20,61
462,621	20,62
462,974	20,64
463,328	20,64
463,681	20,63
464,035	20,63
464,388	20,64
464,742	20,69
465,095	20,69
465,448	20,69
465,801	20,67
466,155	20,67
466,508	20,69
466,861	20,66
467,214	20,66
467,567	20,66
467,92	20,67
468,273	20,66
468,626	20,66
468,979	20,65
469,332	20,64
469,684	20,64
470,037	20,68
470,39	20,67
470,743	20,67
471,095	20,64
471,448	20,63
471,8	20,62
472,153	20,58
472,505	20,57
472,858	20,55
473,21	20,54
473,562	20,55
473,915	20,54
474,267	20,54
474,619	20,54
474,971	20,54
475,324	20,52
475,676	20,57
476,028	20,54
476,38	20,51
476,732	20,52
477,084	20,52
477,436	20,49
477,787	20,47
478,139	20,47
478,491	20,48
478,843	20,48
479,195	20,49
479,546	20,46
479,898	20,51
480,249	20,6
480,601	20,71
480,952	20,75
481,304	20,78
481,655	20,8
482,007	20,79
482,358	20,78
482,709	20,79
483,061	20,77
483,412	20,77
483,763	20,78
484,114	20,78
484,465	20,78
484,816	20,79
485,167	20,79
485,518	20,79
485,869	20,78
486,22	20,8
486,571	20,79
486,922	20,81
487,272	20,81
487,623	20,79
487,974	20,72
488,324	20,69
488,675	20,67
489,025	20,67
489,376	20,68
489,726	20,7
490,077	20,68
490,427	20,69
490,778	20,71
491,128	20,72
491,478	20,71
491,828	20,72
492,179	20,72
492,529	20,73
492,879	20,75
493,229	20,77
493,579	20,78
493,929	20,81
494,279	20,82
494,629	20,84
494,979	20,85
495,328	20,89
495,678	20,9
496,028	20,94
496,378	20,95
496,727	20,96
497,077	21
497,426	21,06
497,776	21,05
498,125	21,07
498,475	21,09
498,824	21,12
499,174	21,13
499,523	21,17
499,872	21,22
500,221	21,23
500,571	21,26
500,92	21,29
501,269	21,34
501,618	21,37
501,967	21,4
502,316	21,43
502,665	21,44
503,014	21,5
503,363	21,55
503,711	21,59
504,06	21,66
504,409	21,7
504,758	21,74
505,106	21,81
505,455	21,87
505,803	21,92
506,152	21,96
506,5	22,02
506,849	22,06
507,197	22,1
507,546	22,17
507,894	22,21
508,242	22,26
508,59	22,29
508,939	22,36
509,287	22,43
509,635	22,49
509,983	22,55
510,331	22,58
510,679	22,64
511,027	22,68
511,375	22,72
511,723	22,79
512,07	22,85
512,418	22,91
512,766	22,98
513,114	23,05
513,461	23,13
513,809	23,2
514,156	23,28
514,504	23,37
514,851	23,45
515,199	23,54
515,546	23,62
515,893	23,71
516,241	23,79
516,588	23,86
516,935	23,92
517,282	24,02
517,63	24,11
517,977	24,18
518,324	24,27
518,671	24,34
519,018	24,4
519,365	24,46
519,711	24,52
520,058	24,57
520,405	24,62
520,752	24,69
521,099	24,78
521,445	24,86
521,792	24,93
522,138	25,04
522,485	25,13
522,832	25,29
523,178	25,35
523,524	25,45
523,871	25,56
524,217	25,67
524,563	25,75
524,91	25,9
525,256	26,07
525,602	26,22
525,948	26,33
526,294	26,43
526,64	26,49
526,986	26,56
527,332	26,61
527,678	26,66
528,024	26,69
528,37	26,73
528,716	26,77
529,061	26,81
529,407	26,85
529,753	26,91
530,098	26,95
530,444	27,02
530,789	27,07
531,135	27,09
531,48	27,12
531,826	27,16
532,171	27,2
532,516	27,2
532,862	27,22
533,207	27,23
533,552	27,24
533,897	27,27
534,242	27,29
534,587	27,33
534,932	27,39
535,277	27,41
535,622	27,42
535,967	27,45
536,312	27,49
536,657	27,52
537,001	27,55
537,346	27,58
537,691	27,59
538,035	27,59
538,38	27,61
538,724	27,65
539,069	27,66
539,413	27,63
539,758	27,64
540,102	27,65
540,446	27,63
540,791	27,65
541,135	27,66
541,479	27,66
541,823	27,66
542,167	27,66
542,512	27,71
542,856	27,69
543,2	27,7
543,543	27,71
543,887	27,72
544,231	27,73
544,575	27,72
544,919	27,72
545,262	27,74
545,606	27,74
545,95	27,75
546,293	27,77
546,637	27,8
546,98	27,84
547,324	27,85
547,667	27,93
548,011	27,92
548,354	27,94
548,697	27,95
549,04	27,96
549,384	27,94
549,727	27,89
550,07	27,93
550,413	27,93
550,756	27,91
551,099	27,88
551,442	27,86
551,785	27,89
552,128	27,92
552,47	27,92
552,813	27,91
553,156	27,9
553,499	27,89
553,841	27,88
554,184	27,88
554,526	27,85
554,869	27,82
555,211	27,84
555,554	27,84
555,896	27,84
556,238	27,82
556,581	27,82
556,923	27,81
557,265	27,79
557,607	27,75
557,949	27,77
558,291	27,77
558,633	27,73
558,975	27,69
559,317	27,65
559,659	27,64
560,001	27,62
560,343	27,61
560,685	27,57
561,026	27,54
561,368	27,49
561,71	27,45
562,051	27,38
562,393	27,38
562,734	27,27
563,076	27,21
563,417	27,17
563,759	27,12
564,1	27,1
564,441	27,04
564,782	27,02
565,124	26,92
565,465	26,88
565,806	26,84
566,147	26,78
566,488	26,72
566,829	26,65
567,17	26,59
567,511	26,48
567,851	26,43
568,192	26,38
568,533	26,28
568,874	26,25
569,214	26,21
569,555	26,08
569,895	26,03
570,236	25,96
570,576	25,88
570,917	25,82
571,257	25,73
571,598	25,67
571,938	25,62
572,278	25,58
572,618	25,51
572,959	25,46
573,299	25,41
573,639	25,38
573,979	25,33
574,319	25,3
574,659	25,28
574,999	25,24
575,339	25,19
575,678	25,2
576,018	25,12
576,358	25,07
576,698	25,04
577,037	25,03
577,377	25,01
577,716	24,98
578,056	24,93
578,395	24,89
578,735	24,87
579,074	24,81
579,413	24,77
579,753	24,76
580,092	24,74
580,431	24,69
580,77	24,67
581,109	24,62
581,448	24,58
581,787	24,52
582,126	24,47
582,465	24,41
582,804	24,36
583,143	24,36
583,482	24,3
583,82	24,3
584,159	24,22
584,498	24,2
584,836	24,21
585,175	24,17
585,514	24,13
585,852	24,07
586,19	24,04
586,529	23,99
586,867	23,95
587,205	23,91
587,544	23,93
587,882	23,89
588,22	23,9
588,558	23,91
588,896	23,91
589,234	23,9
589,572	23,87
589,91	23,85
590,248	23,81
590,586	23,81
590,924	23,75
591,262	23,75
591,599	23,73
591,937	23,72
592,275	23,69
592,612	23,68
592,95	23,66
593,287	23,67
593,625	23,64
593,962	23,61
594,299	23,61
594,637	23,54
594,974	23,54
595,311	23,52
595,648	23,48
595,985	23,46
596,322	23,45
596,659	23,51
596,996	23,5
597,333	23,46
597,67	23,46
598,007	23,48
598,344	23,49
598,681	23,54
599,017	23,45
599,354	23,41
599,691	23,4
600,027	23,41
600,364	23,37
600,7	23,38
601,037	23,37
601,373	23,33
601,71	23,35
602,046	23,35
602,382	23,3
602,718	23,28
603,054	23,26
603,391	23,25
603,727	23,18
604,063	23,16
604,399	23,17
604,735	23,14
605,071	23,08
605,406	23,05
605,742	22,98
606,078	23
606,414	22,98
606,749	22,93
607,085	22,89
607,421	22,87
607,756	22,82
608,092	22,81
608,427	22,76
608,762	22,71
609,098	22,67
609,433	22,64
609,768	22,62
610,104	22,62
610,439	22,57
610,774	22,56
611,109	22,5
611,444	22,49
611,779	22,49
612,114	22,48
612,449	22,42
612,784	22,39
613,118	22,37
613,453	22,37
613,788	22,38
614,123	22,37
614,457	22,35
614,792	22,35
615,126	22,3
615,461	22,29
615,795	22,28
616,13	22,23
616,464	22,25
616,798	22,21
617,132	22,19
617,467	22,18
617,801	22,11
618,135	22,16
618,469	22,12
618,803	22,06
619,137	22,08
619,471	22,08
619,805	22,05
620,139	21,98
620,472	21,98
620,806	21,92
621,14	21,89
621,473	21,92
621,807	21,86
622,141	21,83
622,474	21,81
622,808	21,83
623,141	21,78
623,474	21,73
623,808	21,72
624,141	21,69
624,474	21,7
624,807	21,67
625,141	21,63
625,474	21,63
625,807	21,62
626,14	21,59
626,473	21,59
626,806	21,61
627,138	21,7
627,471	21,66
627,804	21,68
628,137	21,7
628,469	21,65
628,802	21,66
629,135	21,72
629,467	21,72
629,8	21,71
630,132	21,75
630,465	21,77
630,797	21,79
631,129	21,79
631,461	21,79
631,794	21,92
632,126	21,84
632,458	21,8
632,79	21,77
633,122	21,78
633,454	21,74
633,786	21,68
634,118	21,63
634,45	21,64
634,781	21,6
635,113	21,55
635,445	21,53
635,777	21,5
636,108	21,43
636,44	21,4
636,771	21,35
637,103	21,26
637,434	21,2
637,765	21,13
638,097	21,18
638,428	21,1
638,759	20,93
639,09	20,99
639,422	20,99
639,753	21,01
640,084	20,92
640,415	20,88
640,746	20,93
641,077	20,82
641,407	20,75
641,738	20,75
642,069	20,73
642,4	20,68
642,73	20,69
643,061	20,67
643,392	20,66
643,722	20,65
644,053	20,72
644,383	20,74
644,713	20,74
645,044	20,58
645,374	20,55
645,704	20,59
646,034	20,53
646,365	20,52
646,695	20,5
647,025	20,54
647,355	20,5
647,685	20,38
