Data from palm_tumJ_d_45_25_Reflection_15-26-21-654.txt Node
Date: Fri Feb 11 15:26:21 ART 2022
User: Nati
Spectrometer: USB2E3644
Trigger mode: 4
Integration Time (sec): 3,520000E-1
Scans to average: 10
Electric dark correction enabled: true
Nonlinearity correction enabled: false
Boxcar width: 10
XAxis mode: Wavelengths
Number of Pixels in Spectrum: 2048
>>>>>Begin Spectral Data<<<<<
178,315	64,1
178,696	58
179,076	56,93
179,457	44,62
179,838	48,04
180,218	27,1
180,599	-123,94
180,979	10,53
181,36	128,93
181,74	154,26
182,121	122,91
182,501	133,13
182,881	113,85
183,262	106,38
183,642	112,06
184,022	112,37
184,402	107,57
184,783	102
185,163	101,33
185,543	107,82
185,923	102,12
186,303	95,48
186,683	94,17
187,063	95,55
187,443	94,41
187,823	94,95
188,203	95,3
188,583	97,78
188,963	98,81
189,343	95,66
189,723	96,82
190,102	98,56
190,482	95,97
190,862	95,89
191,242	96,69
191,621	98,69
192,001	98,21
192,38	98,45
192,76	97,82
193,14	96,53
193,519	93,5
193,898	94,47
194,278	96,19
194,657	96,53
195,037	95,15
195,416	95,6
195,795	99,66
196,175	100,99
196,554	100,85
196,933	102,67
197,312	104,97
197,692	103,48
198,071	101,63
198,45	103,34
198,829	106,28
199,208	108,18
199,587	107,07
199,966	107,08
200,345	106,12
200,724	106,43
201,103	109,03
201,482	112,5
201,86	111,8
202,239	112,2
202,618	113,6
202,997	115,39
203,375	116,83
203,754	114,77
204,133	113,89
204,511	113,16
204,89	112,17
205,269	111,69
205,647	113,02
206,026	115,67
206,404	117,58
206,782	115,97
207,161	116,16
207,539	115,25
207,918	115,67
208,296	115,53
208,674	115,36
209,052	114,74
209,431	112,58
209,809	112,5
210,187	111,44
210,565	110,85
210,943	108,44
211,321	107,21
211,699	108,07
212,077	108,79
212,455	107,07
212,833	107,56
213,211	106,92
213,589	105,75
213,967	104,14
214,345	100,09
214,722	99,15
215,1	97,67
215,478	94,69
215,855	94,31
216,233	94,81
216,611	95,9
216,988	95,32
217,366	95,9
217,743	94,08
218,121	92,51
218,498	93,77
218,876	95,69
219,253	95,76
219,631	97,59
220,008	96,47
220,385	94,01
220,762	92,26
221,14	91,31
221,517	87,58
221,894	86,56
222,271	88,56
222,648	89,35
223,025	88,95
223,402	93,31
223,78	94,16
224,157	93,63
224,533	91,94
224,91	94,56
225,287	93,46
225,664	94,95
226,041	98,07
226,418	95,87
226,795	96,8
227,171	98,77
227,548	96,29
227,925	99,21
228,301	103,96
228,678	106,66
229,055	114,06
229,431	123,33
229,808	124,88
230,184	129,27
230,561	131,82
230,937	141,15
231,313	139,15
231,69	138,56
232,066	145,82
232,442	150,97
232,819	147,87
233,195	149,58
233,571	157,8
233,947	155,13
234,323	163,63
234,699	171,15
235,075	170,76
235,451	172,32
235,827	173,66
236,203	174,34
236,579	171,15
236,955	166,65
237,331	167,92
237,707	180,37
238,083	186,07
238,459	206,85
238,834	224,61
239,21	278,58
239,586	351,19
239,961	411,6
240,337	540,05
240,713	878,6
241,088	4011,32
241,464	-3288,52
241,839	-1941,75
242,215	-1164,42
242,59	-556,31
242,965	-203,67
243,341	-93,68
243,716	-55,53
244,091	-35,2
244,467	-24,55
244,842	-18,37
245,217	-13,97
245,592	-10,82
245,967	-14,25
246,343	-15,44
246,718	-18,23
247,093	-22,79
247,468	-25,01
247,843	-25,62
248,218	-22,35
248,593	-18,05
248,967	-14,14
249,342	-11,16
249,717	-11,14
250,092	-11,4
250,467	-13,57
250,841	-15,01
251,216	-17,17
251,591	-19,77
251,965	-23,84
252,34	-29,6
252,714	-36,47
253,089	-46,72
253,463	-49,07
253,838	-41,27
254,212	-37,5
254,587	-28,39
254,961	-21,12
255,335	-12,36
255,71	-5,29
256,084	1,68
256,458	6,11
256,832	8,86
257,206	10,03
257,581	12,53
257,955	14,01
258,329	15,23
258,703	15,53
259,077	15,61
259,451	15,16
259,825	14,09
260,199	13,95
260,572	15,11
260,946	16,86
261,32	17,75
261,694	17,49
262,068	18,51
262,441	18,42
262,815	18,42
263,189	18,47
263,562	18,85
263,936	17,85
264,309	16,06
264,683	14,16
265,056	14,35
265,43	14,8
265,803	14,57
266,176	14,6
266,55	14,77
266,923	15,57
267,296	17,39
267,67	18,84
268,043	18,92
268,416	19,49
268,789	19,35
269,162	18,98
269,535	19,28
269,908	19,6
270,281	20,2
270,654	20,25
271,027	19,68
271,4	19,14
271,773	18,95
272,146	19,11
272,519	19,23
272,891	18,64
273,264	17,74
273,637	17,51
274,01	17,15
274,382	17,22
274,755	16,97
275,127	16,36
275,5	16,05
275,872	16,54
276,245	16,1
276,617	16,36
276,99	16,89
277,362	17,22
277,734	17,22
278,107	16,87
278,479	16,39
278,851	16,46
279,223	16,45
279,596	16,57
279,968	16,82
280,34	17,42
280,712	17,56
281,084	17,64
281,456	17,4
281,828	17,39
282,2	17,6
282,572	18,28
282,944	18,52
283,315	18,73
283,687	18,93
284,059	19,17
284,431	18,99
284,802	18,84
285,174	18,78
285,546	18,68
285,917	18,85
286,289	19,29
286,66	19,73
287,032	19,98
287,403	20,09
287,775	19,92
288,146	19,62
288,518	19,35
288,889	19,84
289,26	20,34
289,632	20,65
290,003	20,49
290,374	20,2
290,745	20,16
291,116	19,75
291,487	19,36
291,858	18,87
292,229	19,01
292,6	19,5
292,971	19,86
293,342	20,2
293,713	20,28
294,084	20,39
294,455	20,43
294,826	20,52
295,196	20,51
295,567	20,7
295,938	20,79
296,308	21,14
296,679	20,78
297,05	20,81
297,42	21,04
297,791	21,13
298,161	20,99
298,532	20,82
298,902	20,93
299,272	21,36
299,643	21,45
300,013	21,47
300,383	21,41
300,754	21,42
301,124	20,83
301,494	20,57
301,864	20,55
302,234	20,43
302,604	20,28
302,974	20,46
303,344	20,19
303,714	20,19
304,084	20,39
304,454	20,67
304,824	20,52
305,194	20,59
305,563	20,93
305,933	20,96
306,303	21,25
306,673	21,45
307,042	21,26
307,412	21,66
307,781	21,85
308,151	21,86
308,521	21,66
308,89	21,96
309,259	22,02
309,629	21,98
309,998	22,04
310,368	22,04
310,737	21,95
311,106	22,21
311,475	22,18
311,845	21,95
312,214	21,67
312,583	21,73
312,952	21,39
313,321	21,18
313,69	21,25
314,059	21,28
314,428	21,19
314,797	21,12
315,166	20,91
315,535	20,97
315,904	20,96
316,272	21,09
316,641	20,92
317,01	20,94
317,379	20,95
317,747	20,86
318,116	20,64
318,484	20,58
318,853	20,48
319,221	20,46
319,59	20,5
319,958	20,68
320,327	20,59
320,695	20,71
321,063	20,69
321,432	20,7
321,8	20,55
322,168	20,55
322,536	20,47
322,905	20,38
323,273	20,14
323,641	20,08
324,009	20,1
324,377	20,3
324,745	20,39
325,113	20,35
325,481	20,3
325,849	20,59
326,216	20,85
326,584	20,79
326,952	20,94
327,32	21,02
327,687	21,16
328,055	21,14
328,423	21,1
328,79	21,15
329,158	21,1
329,525	21,02
329,893	20,84
330,26	20,91
330,628	21,17
330,995	21,3
331,362	21,24
331,73	20,94
332,097	20,73
332,464	20,62
332,831	20,58
333,199	20,58
333,566	20,55
333,933	20,17
334,3	19,99
334,667	19,82
335,034	19,79
335,401	19,6
335,768	19,56
336,135	19,7
336,502	19,64
336,868	19,55
337,235	19,55
337,602	19,69
337,969	19,59
338,335	19,6
338,702	19,59
339,069	19,48
339,435	19,66
339,802	19,73
340,168	19,86
340,535	19,77
340,901	19,77
341,267	19,69
341,634	19,86
342	20,02
342,366	19,94
342,733	19,95
343,099	19,93
343,465	19,96
343,831	19,83
344,197	19,83
344,563	19,87
344,929	19,83
345,295	19,76
345,661	19,89
346,027	19,84
346,393	19,74
346,759	19,72
347,125	19,67
347,491	19,66
347,856	19,72
348,222	19,78
348,588	19,72
348,953	19,77
349,319	19,74
349,684	19,59
350,05	19,64
350,415	19,63
350,781	19,7
351,146	19,68
351,512	19,69
351,877	19,72
352,242	19,72
352,608	19,7
352,973	19,79
353,338	19,72
353,703	19,7
354,068	19,76
354,433	19,82
354,798	19,86
355,164	19,88
355,528	19,74
355,893	19,72
356,258	19,66
356,623	19,56
356,988	19,56
357,353	19,58
357,718	19,61
358,082	19,55
358,447	19,43
358,812	19,52
359,176	19,58
359,541	19,48
359,905	19,43
360,27	19,46
360,634	19,52
360,999	19,53
361,363	19,54
361,728	19,56
362,092	19,54
362,456	19,52
362,821	19,52
363,185	19,52
363,549	19,55
363,913	19,71
364,277	19,82
364,641	19,78
365,005	19,8
365,369	19,85
365,733	19,91
366,097	20,03
366,461	20,03
366,825	19,94
367,189	20,01
367,553	20,08
367,916	20,13
368,28	20,1
368,644	20,12
369,007	20,16
369,371	20,26
369,734	20,28
370,098	20,37
370,461	20,36
370,825	20,44
371,188	20,42
371,552	20,41
371,915	20,4
372,278	20,48
372,642	20,53
373,005	20,57
373,368	20,54
373,731	20,5
374,094	20,49
374,457	20,54
374,82	20,62
375,183	20,7
375,546	20,73
375,909	20,76
376,272	20,85
376,635	20,83
376,998	20,77
377,361	20,88
377,723	20,84
378,086	20,9
378,449	20,9
378,811	21,03
379,174	20,99
379,537	20,98
379,899	20,99
380,262	21,09
380,624	21,1
380,987	21,15
381,349	21,2
381,711	21,27
382,074	21,31
382,436	21,34
382,798	21,37
383,16	21,23
383,522	21,16
383,884	21,12
384,247	21,1
384,609	21,08
384,971	21
385,333	21,03
385,695	21,03
386,056	21,03
386,418	20,94
386,78	21,08
387,142	21,07
387,504	21,05
387,865	21
388,227	20,98
388,589	20,96
388,95	20,99
389,312	20,92
389,673	20,98
390,035	20,93
390,396	20,86
390,758	20,93
391,119	21
391,48	20,96
391,842	20,97
392,203	21,02
392,564	21,09
392,925	21,08
393,286	21,03
393,648	21,04
394,009	21,1
394,37	21,01
394,731	21
395,092	21,01
395,452	21,01
395,813	21,02
396,174	21,04
396,535	21,04
396,896	21,06
397,257	21,01
397,617	21,03
397,978	21,12
398,338	21,07
398,699	21,11
399,06	21,29
399,42	21,26
399,781	21,27
400,141	21,22
400,501	21,26
400,862	21,34
401,222	21,34
401,582	21,35
401,943	21,36
402,303	21,37
402,663	21,39
403,023	21,41
403,383	21,42
403,743	21,42
404,103	21,43
404,463	21,46
404,823	21,53
405,183	21,55
405,543	21,53
405,903	21,6
406,262	21,57
406,622	21,48
406,982	21,58
407,342	21,58
407,701	21,64
408,061	21,68
408,42	21,72
408,78	21,75
409,139	21,77
409,499	21,79
409,858	21,87
410,217	21,93
410,577	21,96
410,936	22,01
411,295	22,02
411,655	22,06
412,014	22,1
412,373	22,07
412,732	22,06
413,091	22,06
413,45	22,1
413,809	22,12
414,168	22,14
414,527	22,09
414,886	22,11
415,245	22,08
415,603	22,05
415,962	22,04
416,321	22,04
416,679	22
417,038	22,01
417,397	22,01
417,755	22,01
418,114	22,01
418,472	22,02
418,831	22,06
419,189	22,07
419,547	22,08
419,906	22,11
420,264	22,12
420,622	22,14
420,981	22,18
421,339	22,21
421,697	22,24
422,055	22,29
422,413	22,32
422,771	22,37
423,129	22,43
423,487	22,49
423,845	22,57
424,203	22,64
424,56	22,71
424,918	22,78
425,276	22,87
425,634	22,96
425,991	23,03
426,349	23,09
426,707	23,17
427,064	23,25
427,422	23,34
427,779	23,49
428,137	23,62
428,494	23,71
428,851	23,82
429,209	23,89
429,566	23,96
429,923	24,03
430,28	24,09
430,637	24,15
430,995	24,13
431,352	24,14
431,709	24,18
432,066	24,22
432,423	24,25
432,78	24,29
433,137	24,33
433,493	24,36
433,85	24,41
434,207	24,38
434,564	24,38
434,92	24,39
435,277	24,39
435,634	24,4
435,99	24,41
436,347	24,43
436,703	24,48
437,06	24,5
437,416	24,53
437,773	24,54
438,129	24,56
438,485	24,63
438,841	24,63
439,198	24,65
439,554	24,65
439,91	24,67
440,266	24,67
440,622	24,67
440,978	24,67
441,334	24,67
441,69	24,73
442,046	24,77
442,402	24,78
442,758	24,78
443,113	24,81
443,469	24,84
443,825	24,86
444,181	24,88
444,536	24,92
444,892	24,96
445,247	25
445,603	25,03
445,958	25,02
446,314	25,05
446,669	25,09
447,025	25,11
447,38	25,14
447,735	25,16
448,09	25,19
448,446	25,23
448,801	25,27
449,156	25,29
449,511	25,33
449,866	25,38
450,221	25,45
450,576	25,49
450,931	25,57
451,286	25,62
451,641	25,66
451,995	25,7
452,35	25,76
452,705	25,78
453,06	25,79
453,414	25,83
453,769	25,86
454,123	25,87
454,478	25,91
454,832	25,93
455,187	25,9
455,541	25,93
455,896	25,89
456,25	25,86
456,604	25,82
456,958	25,79
457,313	25,79
457,667	25,79
458,021	25,78
458,375	25,79
458,729	25,79
459,083	25,79
459,437	25,79
459,791	25,78
460,145	25,78
460,499	25,79
460,852	25,78
461,206	25,79
461,56	25,79
461,914	25,78
462,267	25,75
462,621	25,79
462,974	25,77
463,328	25,81
463,681	25,85
464,035	25,91
464,388	25,95
464,742	25,98
465,095	25,98
465,448	26,01
465,801	26
466,155	26,01
466,508	26,03
466,861	26,01
467,214	26,01
467,567	26,03
467,92	26,02
468,273	26,03
468,626	26,02
468,979	26,03
469,332	26,03
469,684	26,05
470,037	26,06
470,39	26,06
470,743	26,08
471,095	26,08
471,448	26,09
471,8	26,1
472,153	26,08
472,505	26,1
472,858	26,1
473,21	26,1
473,562	26,1
473,915	26,09
474,267	26,08
474,619	26,07
474,971	26,06
475,324	26,07
475,676	26,11
476,028	26,09
476,38	26,07
476,732	26,04
477,084	26,06
477,436	26,02
477,787	25,99
478,139	25,97
478,491	25,97
478,843	25,91
479,195	25,91
479,546	25,86
479,898	25,84
480,249	25,83
480,601	25,88
480,952	25,89
481,304	25,87
481,655	25,84
482,007	25,81
482,358	25,8
482,709	25,79
483,061	25,74
483,412	25,73
483,763	25,71
484,114	25,71
484,465	25,68
484,816	25,67
485,167	25,67
485,518	25,66
485,869	25,64
486,22	25,65
486,571	25,65
486,922	25,67
487,272	25,66
487,623	25,63
487,974	25,57
488,324	25,54
488,675	25,52
489,025	25,53
489,376	25,55
489,726	25,55
490,077	25,57
490,427	25,61
490,778	25,63
491,128	25,68
491,478	25,71
491,828	25,79
492,179	25,84
492,529	25,88
492,879	25,93
493,229	25,99
493,579	26
493,929	26,03
494,279	26,07
494,629	26,12
494,979	26,17
495,328	26,25
495,678	26,31
496,028	26,4
496,378	26,48
496,727	26,56
497,077	26,62
497,426	26,68
497,776	26,66
498,125	26,71
498,475	26,72
498,824	26,76
499,174	26,75
499,523	26,77
499,872	26,81
500,221	26,88
500,571	26,91
500,92	26,99
501,269	27,06
501,618	27,09
501,967	27,12
502,316	27,17
502,665	27,23
503,014	27,3
503,363	27,36
503,711	27,41
504,06	27,46
504,409	27,53
504,758	27,55
505,106	27,66
505,455	27,72
505,803	27,8
506,152	27,84
506,5	27,89
506,849	27,96
507,197	28,02
507,546	28,07
507,894	28,12
508,242	28,18
508,59	28,23
508,939	28,3
509,287	28,39
509,635	28,46
509,983	28,51
510,331	28,59
510,679	28,69
511,027	28,75
511,375	28,84
511,723	28,92
512,07	29,02
512,418	29,1
512,766	29,19
513,114	29,26
513,461	29,35
513,809	29,44
514,156	29,53
514,504	29,61
514,851	29,71
515,199	29,82
515,546	29,9
515,893	30,01
516,241	30,12
516,588	30,18
516,935	30,29
517,282	30,37
517,63	30,42
517,977	30,49
518,324	30,58
518,671	30,66
519,018	30,74
519,365	30,8
519,711	30,91
520,058	30,98
520,405	31,04
520,752	31,12
521,099	31,22
521,445	31,34
521,792	31,46
522,138	31,57
522,485	31,72
522,832	31,85
523,178	31,93
523,524	32,03
523,871	32,13
524,217	32,22
524,563	32,3
524,91	32,44
525,256	32,58
525,602	32,7
525,948	32,78
526,294	32,83
526,64	32,87
526,986	32,88
527,332	32,92
527,678	32,95
528,024	32,98
528,37	33,03
528,716	33,03
529,061	33,06
529,407	33,09
529,753	33,13
530,098	33,18
530,444	33,24
530,789	33,27
531,135	33,3
531,48	33,33
531,826	33,39
532,171	33,41
532,516	33,41
532,862	33,45
533,207	33,49
533,552	33,52
533,897	33,57
534,242	33,63
534,587	33,67
534,932	33,76
535,277	33,8
535,622	33,82
535,967	33,89
536,312	33,94
536,657	33,99
537,001	34,03
537,346	34,07
537,691	34,09
538,035	34,13
538,38	34,15
538,724	34,16
539,069	34,17
539,413	34,18
539,758	34,2
540,102	34,22
540,446	34,22
540,791	34,25
541,135	34,26
541,479	34,28
541,823	34,27
542,167	34,24
542,512	34,27
542,856	34,26
543,2	34,25
543,543	34,23
543,887	34,23
544,231	34,25
544,575	34,26
544,919	34,26
545,262	34,29
545,606	34,33
545,95	34,36
546,293	34,39
546,637	34,43
546,98	34,46
547,324	34,47
547,667	34,54
548,011	34,55
548,354	34,57
548,697	34,57
549,04	34,59
549,384	34,61
549,727	34,59
550,07	34,64
550,413	34,63
550,756	34,66
551,099	34,69
551,442	34,67
551,785	34,7
552,128	34,72
552,47	34,71
552,813	34,71
553,156	34,66
553,499	34,64
553,841	34,61
554,184	34,58
554,526	34,55
554,869	34,5
555,211	34,48
555,554	34,45
555,896	34,42
556,238	34,42
556,581	34,41
556,923	34,37
557,265	34,36
557,607	34,31
557,949	34,32
558,291	34,29
558,633	34,23
558,975	34,13
559,317	34,09
559,659	34,08
560,001	34,02
560,343	33,99
560,685	33,94
561,026	33,91
561,368	33,86
561,71	33,75
562,051	33,66
562,393	33,65
562,734	33,58
563,076	33,49
563,417	33,4
563,759	33,3
564,1	33,24
564,441	33,19
564,782	33,14
565,124	33,05
565,465	32,98
565,806	32,94
566,147	32,92
566,488	32,86
566,829	32,77
567,17	32,69
567,511	32,6
567,851	32,59
568,192	32,53
568,533	32,46
568,874	32,43
569,214	32,36
569,555	32,26
569,895	32,19
570,236	32,17
570,576	32,1
570,917	32,01
571,257	31,94
571,598	31,86
571,938	31,78
572,278	31,71
572,618	31,65
572,959	31,61
573,299	31,54
573,639	31,47
573,979	31,43
574,319	31,4
574,659	31,34
574,999	31,25
575,339	31,17
575,678	31,09
576,018	31,02
576,358	30,98
576,698	30,95
577,037	30,91
577,377	30,84
577,716	30,79
578,056	30,81
578,395	30,76
578,735	30,69
579,074	30,64
579,413	30,61
579,753	30,56
580,092	30,46
580,431	30,42
580,77	30,39
581,109	30,33
581,448	30,28
581,787	30,28
582,126	30,23
582,465	30,19
582,804	30,24
583,143	30,24
583,482	30,19
583,82	30,12
584,159	30,12
584,498	30,08
584,836	30,07
585,175	30
585,514	30,02
585,852	29,99
586,19	29,99
586,529	29,92
586,867	29,87
587,205	29,85
587,544	29,83
587,882	29,79
588,22	29,76
588,558	29,74
588,896	29,7
589,234	29,68
589,572	29,64
589,91	29,57
590,248	29,51
590,586	29,51
590,924	29,48
591,262	29,43
591,599	29,4
591,937	29,37
592,275	29,33
592,612	29,27
592,95	29,23
593,287	29,22
593,625	29,17
593,962	29,17
594,299	29,17
594,637	29,16
594,974	29,11
595,311	29,1
595,648	29,08
595,985	29,06
596,322	29,07
596,659	29,15
596,996	29,12
597,333	29,08
597,67	29,04
598,007	29,02
598,344	29,03
598,681	29,06
599,017	29,01
599,354	28,99
599,691	28,99
600,027	29,01
600,364	28,96
600,7	28,94
601,037	28,91
601,373	28,86
601,71	28,83
602,046	28,84
602,382	28,81
602,718	28,78
603,054	28,74
603,391	28,72
603,727	28,63
604,063	28,65
604,399	28,65
604,735	28,63
605,071	28,63
605,406	28,59
605,742	28,56
606,078	28,58
606,414	28,54
606,749	28,49
607,085	28,45
607,421	28,43
607,756	28,44
608,092	28,42
608,427	28,37
608,762	28,32
609,098	28,29
609,433	28,25
609,768	28,21
610,104	28,2
610,439	28,14
610,774	28,12
611,109	28,04
611,444	28,03
611,779	28,03
612,114	27,96
612,449	27,91
612,784	27,85
613,118	27,8
613,453	27,77
613,788	27,73
614,123	27,63
614,457	27,6
614,792	27,53
615,126	27,46
615,461	27,46
615,795	27,38
616,13	27,35
616,464	27,33
616,798	27,32
617,132	27,25
617,467	27,19
617,801	27,17
618,135	27,19
618,469	27,14
618,803	27,08
619,137	27,08
619,471	27,05
619,805	27
620,139	26,91
620,472	26,9
620,806	26,91
621,14	26,88
621,473	26,87
621,807	26,84
622,141	26,81
622,474	26,78
622,808	26,83
623,141	26,81
623,474	26,78
623,808	26,77
624,141	26,78
624,474	26,82
624,807	26,76
625,141	26,73
625,474	26,75
625,807	26,76
626,14	26,78
626,473	26,79
626,806	26,83
627,138	26,87
627,471	26,81
627,804	26,78
628,137	26,82
628,469	26,73
628,802	26,72
629,135	26,75
629,467	26,77
629,8	26,74
630,132	26,71
630,465	26,73
630,797	26,71
631,129	26,69
631,461	26,66
631,794	26,74
632,126	26,68
632,458	26,68
632,79	26,63
633,122	26,56
633,454	26,49
633,786	26,4
634,118	26,37
634,45	26,4
634,781	26,37
635,113	26,32
635,445	26,3
635,777	26,31
636,108	26,25
636,44	26,2
636,771	26,16
637,103	26,14
637,434	26,07
637,765	25,98
638,097	26,04
638,428	25,93
638,759	25,76
639,09	25,74
639,422	25,66
639,753	25,63
640,084	25,61
640,415	25,59
640,746	25,63
641,077	25,58
641,407	25,47
641,738	25,49
642,069	25,43
642,4	25,44
642,73	25,42
643,061	25,39
643,392	25,33
643,722	25,3
644,053	25,27
644,383	25,2
644,713	25,18
645,044	25,05
645,374	25,09
645,704	25,1
646,034	25,02
646,365	24,96
646,695	24,92
647,025	24,87
647,355	24,83
647,685	24,74
648,015	24,74
