Data from palm_tumV_d_45_25_Reflection_00005.txt Node
Date: Fri Feb 11 15:35:33 ART 2022
User: Nati
Spectrometer: USB2E3644
Trigger mode: 4
Integration Time (sec): 3,520000E-1
Scans to average: 10
Electric dark correction enabled: true
Nonlinearity correction enabled: false
Boxcar width: 10
XAxis mode: Wavelengths
Number of Pixels in Spectrum: 2048
>>>>>Begin Spectral Data<<<<<
178,315	-384,16
178,696	-1181,82
179,076	-454,68
179,457	-685,29
179,838	-144,62
180,218	-50
180,599	-166,29
180,979	-128,57
181,36	12,75
181,74	36,91
182,121	89,16
182,501	296,55
182,881	-53,06
183,262	322,58
183,642	485,71
184,022	326,96
184,402	284,14
184,783	377,98
185,163	304,83
185,543	268,45
185,923	394,78
186,303	590,59
186,683	638,83
187,063	1306,12
187,443	-1855,17
187,823	-510,84
188,203	-160,41
188,583	-63,22
188,963	-24,54
189,343	-53,82
189,723	-115,68
190,102	-97,14
190,482	-69
190,862	-50,94
191,242	-17,92
191,621	9,07
192,001	27,62
192,38	43,06
192,76	47,51
193,14	48,98
193,519	49,65
193,898	47,19
194,278	43,83
194,657	42,98
195,037	46,1
195,416	43,89
195,795	39,9
196,175	45,9
196,554	50,71
196,933	60,95
197,312	70,62
197,692	63,69
198,071	56,2
198,45	51,06
198,829	51,73
199,208	42,21
199,587	35,46
199,966	26,11
200,345	13,47
200,724	7,85
201,103	13,08
201,482	8,73
201,86	10,32
202,239	14,78
202,618	5,77
202,997	-3,57
203,375	-1,57
203,754	2,05
204,133	-17,91
204,511	-22,91
204,89	-31,05
205,269	-52,05
205,647	-56,61
206,026	-67,91
206,404	-79,21
206,782	-136,23
207,161	-144,75
207,539	-176,41
207,918	-196,71
208,296	-228,94
208,674	-228,67
209,052	-283,27
209,431	-427,33
209,809	-6581,82
210,187	2393,55
210,565	3652,63
210,943	794,94
211,321	335,83
211,699	306,34
212,077	661,18
212,455	858,18
212,833	-960,98
213,211	-306,54
213,589	-200
213,967	-119,67
214,345	-58,36
214,722	-55,22
215,1	-43,48
215,478	-15,54
215,855	0,29
216,233	7,01
216,611	5,56
216,988	6,68
217,366	1,17
217,743	7,66
218,121	16,69
218,498	26,42
218,876	23,07
219,253	19,49
219,631	17,78
220,008	21,28
220,385	25,8
220,762	25,09
221,14	18,51
221,517	17,43
221,894	21,17
222,271	18,84
222,648	30,53
223,025	34,41
223,402	41,43
223,78	40,36
224,157	38,2
224,533	26,77
224,91	9,54
225,287	7,57
225,664	-15,38
226,041	-14,69
226,418	-22,87
226,795	-12,65
227,171	-9,91
227,548	-16,19
227,925	-23,58
228,301	-35,11
228,678	-56,38
229,055	-35,84
229,431	-19,32
229,808	-13,2
230,184	-4,3
230,561	-5,91
230,937	-2,74
231,313	-9,26
231,69	-8,23
232,066	-10,76
232,442	1,38
232,819	19,09
233,195	25,91
233,571	34,28
233,947	31,88
234,323	38,89
234,699	34,31
235,075	33,72
235,451	43,7
235,827	41,29
236,203	36,25
236,579	40,09
236,955	45,16
237,331	45,67
237,707	41,29
238,083	39,1
238,459	41,17
238,834	35,96
239,21	38,12
239,586	39,75
239,961	41,19
240,337	39,43
240,713	35,86
241,088	34,64
241,464	33,84
241,839	34,45
242,215	33,09
242,59	33,68
242,965	33,17
243,341	32,47
243,716	33,77
244,091	34,84
244,467	36,65
244,842	37,01
245,217	36,36
245,592	37,08
245,967	37,49
246,343	37,28
246,718	38,72
247,093	38,04
247,468	36,65
247,843	36,21
248,218	36,73
248,593	37,12
248,967	37,41
249,342	37,91
249,717	37,19
250,092	36,71
250,467	37,24
250,841	37,89
251,216	38,56
251,591	39,23
251,965	40,06
252,34	39,59
252,714	38,72
253,089	40,49
253,463	40,07
253,838	38,15
254,212	37,57
254,587	35,87
254,961	35,51
255,335	35,09
255,71	34,48
256,084	33,25
256,458	32,68
256,832	32,39
257,206	32,23
257,581	32,01
257,955	32,17
258,329	32,21
258,703	32,31
259,077	32,08
259,451	31,3
259,825	30,27
260,199	29,6
260,572	29,52
260,946	29,02
261,32	29,71
261,694	30,52
262,068	31,26
262,441	31,9
262,815	32,43
263,189	33,01
263,562	33,12
263,936	33,13
264,309	33,18
264,683	33,25
265,056	33,18
265,43	33,77
265,803	34,21
266,176	33,57
266,55	33,84
266,923	34,51
267,296	35,31
267,67	35,49
268,043	35,84
268,416	35,86
268,789	35,53
269,162	35,07
269,535	34,83
269,908	34,94
270,281	34,77
270,654	34,54
271,027	34,1
271,4	34,33
271,773	34,77
272,146	34,45
272,519	34,28
272,891	34,36
273,264	34,53
273,637	34,59
274,01	34,63
274,382	34,14
274,755	33,96
275,127	33,53
275,5	33,59
275,872	33,3
276,245	33,06
276,617	33,21
276,99	33,2
277,362	32,89
277,734	32,2
278,107	32,24
278,479	32,3
278,851	32,48
279,223	32,72
279,596	32,45
279,968	32,4
280,34	32,37
280,712	32,32
281,084	32,06
281,456	31,43
281,828	31,23
282,2	31,26
282,572	30,86
282,944	31,1
283,315	31,33
283,687	31,53
284,059	31,65
284,431	31,49
284,802	31,43
285,174	31,46
285,546	31,28
285,917	30,79
286,289	30,43
286,66	30,46
287,032	30,23
287,403	30,19
287,775	30,55
288,146	30,62
288,518	30,33
288,889	30,01
289,26	30,08
289,632	30,17
290,003	30,09
290,374	30,41
290,745	30,31
291,116	30,13
291,487	30,13
291,858	30,19
292,229	30,22
292,6	29,94
292,971	29,83
293,342	30,1
293,713	30,34
294,084	30,57
294,455	30,28
294,826	30,21
295,196	30,19
295,567	30,16
295,938	29,95
296,308	29,79
296,679	30,13
297,05	30,29
297,42	30,13
297,791	30,06
298,161	29,6
298,532	29,28
298,902	29,22
299,272	29,28
299,643	29,24
300,013	29,17
300,383	29,1
300,754	28,82
301,124	28,66
301,494	28,36
301,864	28,05
302,234	27,98
302,604	27,84
302,974	28,24
303,344	28,31
303,714	28,44
304,084	28,73
304,454	28,6
304,824	28,64
305,194	28,73
305,563	28,61
305,933	28,93
306,303	29,24
306,673	29,57
307,042	29,24
307,412	29,14
307,781	29,14
308,151	29,34
308,521	29,59
308,89	29,62
309,259	29,78
309,629	29,71
309,998	29,68
310,368	29,78
310,737	29,45
311,106	29,23
311,475	29,11
311,845	28,8
312,214	28,76
312,583	28,54
312,952	28,31
313,321	28,29
313,69	28,23
314,059	28,1
314,428	27,83
314,797	27,9
315,166	27,76
315,535	27,6
315,904	27,22
316,272	27,05
316,641	26,91
317,01	26,87
317,379	27,04
317,747	27,1
318,116	26,9
318,484	26,72
318,853	26,49
319,221	26,37
319,59	26,57
319,958	26,53
320,327	26,36
320,695	26,23
321,063	26,12
321,432	25,86
321,8	25,59
322,168	25,43
322,536	25,01
322,905	24,86
323,273	24,91
323,641	24,87
324,009	24,84
324,377	24,71
324,745	24,53
325,113	24,32
325,481	24,18
325,849	24,18
326,216	24,14
326,584	24,35
326,952	24,43
327,32	24,24
327,687	24,08
328,055	24,22
328,423	24,39
328,79	24,41
329,158	24,32
329,525	24,35
329,893	24,43
330,26	25,02
330,628	25,1
330,995	24,99
331,362	25,08
331,73	24,93
332,097	24,89
332,464	24,77
332,831	24,85
333,199	24,74
333,566	24,82
333,933	24,97
334,3	24,86
334,667	24,75
335,034	24,78
335,401	24,97
335,768	24,88
336,135	24,88
336,502	24,67
336,868	24,68
337,235	24,67
337,602	24,5
337,969	24,23
338,335	24,16
338,702	24,1
339,069	24,07
339,435	24,11
339,802	24,07
340,168	24,27
340,535	24,27
340,901	24,31
341,267	24,18
341,634	24,15
342	24,09
342,366	24,11
342,733	24,07
343,099	23,84
343,465	23,77
343,831	23,79
344,197	23,97
344,563	23,99
344,929	23,93
345,295	23,99
345,661	23,89
346,027	23,91
346,393	23,91
346,759	23,77
347,125	23,71
347,491	23,69
347,856	23,59
348,222	23,47
348,588	23,38
348,953	23,31
349,319	23,22
349,684	23,24
350,05	23,19
350,415	23,07
350,781	23,11
351,146	23,01
351,512	22,89
351,877	22,77
352,242	22,66
352,608	22,7
352,973	22,54
353,338	22,41
353,703	22,31
354,068	22,33
354,433	22,43
354,798	22,55
355,164	22,69
355,528	22,68
355,893	22,67
356,258	22,74
356,623	22,75
356,988	22,7
357,353	22,52
357,718	22,44
358,082	22,55
358,447	22,54
358,812	22,55
359,176	22,58
359,541	22,53
359,905	22,49
360,27	22,5
360,634	22,49
360,999	22,52
361,363	22,57
361,728	22,59
362,092	22,55
362,456	22,5
362,821	22,42
363,185	22,33
363,549	22,29
363,913	22,25
364,277	22,25
364,641	22,22
365,005	22,28
365,369	22,32
365,733	22,27
366,097	22,25
366,461	22,42
366,825	22,32
367,189	22,35
367,553	22,35
367,916	22,33
368,28	22,38
368,644	22,38
369,007	22,38
369,371	22,35
369,734	22,3
370,098	22,3
370,461	22,22
370,825	22,29
371,188	22,32
371,552	22,34
371,915	22,37
372,278	22,39
372,642	22,41
373,005	22,46
373,368	22,38
373,731	22,37
374,094	22,26
374,457	22,24
374,82	22,2
375,183	22,16
375,546	22,07
375,909	22,06
376,272	22,02
376,635	22,01
376,998	21,92
377,361	21,9
377,723	21,87
378,086	21,91
378,449	21,88
378,811	21,84
379,174	21,76
379,537	21,67
379,899	21,61
380,262	21,61
380,624	21,53
380,987	21,57
381,349	21,58
381,711	21,54
382,074	21,55
382,436	21,54
382,798	21,79
383,16	21,74
383,522	21,67
383,884	21,74
384,247	21,74
384,609	21,73
384,971	21,73
385,333	21,66
385,695	21,62
386,056	21,57
386,418	21,56
386,78	21,71
387,142	21,67
387,504	21,63
387,865	21,54
388,227	21,51
388,589	21,49
388,95	21,48
389,312	21,52
389,673	21,53
390,035	21,51
390,396	21,34
390,758	21,34
391,119	21,37
391,48	21,27
391,842	21,23
392,203	21,17
392,564	21,18
392,925	21,22
393,286	21,18
393,648	21,19
394,009	21,19
394,37	21,08
394,731	21,12
395,092	21,16
395,452	21,17
395,813	21,14
396,174	21,11
396,535	21,03
396,896	20,96
397,257	20,92
397,617	20,96
397,978	21,01
398,338	21,01
398,699	21,03
399,06	21,14
399,42	21,05
399,781	21,12
400,141	21,1
400,501	21,09
400,862	21,08
401,222	21,05
401,582	21,08
401,943	21,08
402,303	21,11
402,663	21,09
403,023	21,12
403,383	21,14
403,743	21,2
404,103	21,26
404,463	21,27
404,823	21,29
405,183	21,26
405,543	21,2
405,903	21,26
406,262	21,23
406,622	21,14
406,982	21,25
407,342	21,26
407,701	21,24
408,061	21,23
408,42	21,3
408,78	21,3
409,139	21,31
409,499	21,3
409,858	21,3
410,217	21,28
410,577	21,24
410,936	21,25
411,295	21,21
411,655	21,22
412,014	21,32
412,373	21,31
412,732	21,3
413,091	21,32
413,45	21,28
413,809	21,28
414,168	21,28
414,527	21,23
414,886	21,25
415,245	21,28
415,603	21,28
415,962	21,24
416,321	21,28
416,679	21,27
417,038	21,27
417,397	21,25
417,755	21,29
418,114	21,31
418,472	21,3
418,831	21,32
419,189	21,33
419,547	21,31
419,906	21,31
420,264	21,31
420,622	21,32
420,981	21,35
421,339	21,37
421,697	21,4
422,055	21,42
422,413	21,44
422,771	21,45
423,129	21,48
423,487	21,51
423,845	21,52
424,203	21,54
424,56	21,59
424,918	21,62
425,276	21,66
425,634	21,71
425,991	21,75
426,349	21,77
426,707	21,8
427,064	21,84
427,422	21,89
427,779	21,99
428,137	22,04
428,494	22,09
428,851	22,13
429,209	22,16
429,566	22,22
429,923	22,26
430,28	22,33
430,637	22,39
430,995	22,41
431,352	22,46
431,709	22,5
432,066	22,52
432,423	22,56
432,78	22,58
433,137	22,59
433,493	22,61
433,85	22,69
434,207	22,67
434,564	22,69
434,92	22,73
435,277	22,76
435,634	22,81
435,99	22,84
436,347	22,91
436,703	23
437,06	23,03
437,416	23,08
437,773	23,08
438,129	23,11
438,485	23,15
438,841	23,16
439,198	23,18
439,554	23,19
439,91	23,22
440,266	23,23
440,622	23,27
440,978	23,33
441,334	23,33
441,69	23,4
442,046	23,42
442,402	23,44
442,758	23,46
443,113	23,48
443,469	23,53
443,825	23,55
444,181	23,57
444,536	23,63
444,892	23,66
445,247	23,71
445,603	23,71
445,958	23,74
446,314	23,76
446,669	23,79
447,025	23,82
447,38	23,82
447,735	23,83
448,09	23,86
448,446	23,87
448,801	23,9
449,156	23,93
449,511	23,97
449,866	24,01
450,221	24,06
450,576	24,11
450,931	24,11
451,286	24,16
451,641	24,18
451,995	24,16
452,35	24,2
452,705	24,19
453,06	24,22
453,414	24,25
453,769	24,27
454,123	24,29
454,478	24,31
454,832	24,36
455,187	24,36
455,541	24,4
455,896	24,4
456,25	24,41
456,604	24,43
456,958	24,41
457,313	24,4
457,667	24,4
458,021	24,4
458,375	24,41
458,729	24,42
459,083	24,44
459,437	24,48
459,791	24,46
460,145	24,49
460,499	24,48
460,852	24,49
461,206	24,51
461,56	24,5
461,914	24,51
462,267	24,51
462,621	24,54
462,974	24,54
463,328	24,54
463,681	24,56
464,035	24,56
464,388	24,58
464,742	24,58
465,095	24,61
465,448	24,63
465,801	24,6
466,155	24,59
466,508	24,57
466,861	24,53
467,214	24,56
467,567	24,58
467,92	24,6
468,273	24,58
468,626	24,56
468,979	24,56
469,332	24,55
469,684	24,52
470,037	24,52
470,39	24,52
470,743	24,53
471,095	24,5
471,448	24,48
471,8	24,5
472,153	24,51
472,505	24,5
472,858	24,49
473,21	24,49
473,562	24,48
473,915	24,48
474,267	24,49
474,619	24,46
474,971	24,44
475,324	24,43
475,676	24,47
476,028	24,47
476,38	24,49
476,732	24,5
477,084	24,51
477,436	24,52
477,787	24,5
478,139	24,5
478,491	24,52
478,843	24,52
479,195	24,52
479,546	24,53
479,898	24,56
480,249	24,71
480,601	24,84
480,952	24,92
481,304	24,94
481,655	24,94
482,007	24,96
482,358	24,95
482,709	24,94
483,061	24,92
483,412	24,92
483,763	24,9
484,114	24,9
484,465	24,88
484,816	24,9
485,167	24,91
485,518	24,89
485,869	24,89
486,22	24,9
486,571	24,9
486,922	24,92
487,272	24,91
487,623	24,84
487,974	24,78
488,324	24,73
488,675	24,71
489,025	24,71
489,376	24,7
489,726	24,71
490,077	24,72
490,427	24,73
490,778	24,72
491,128	24,75
491,478	24,73
491,828	24,75
492,179	24,73
492,529	24,72
492,879	24,75
493,229	24,77
493,579	24,79
493,929	24,81
494,279	24,81
494,629	24,82
494,979	24,87
495,328	24,86
495,678	24,87
496,028	24,9
496,378	24,94
496,727	24,98
497,077	25,01
497,426	25,06
497,776	25,06
498,125	25,11
498,475	25,13
498,824	25,19
499,174	25,21
499,523	25,23
499,872	25,27
500,221	25,31
500,571	25,33
500,92	25,37
501,269	25,4
501,618	25,43
501,967	25,46
502,316	25,46
502,665	25,5
503,014	25,54
503,363	25,57
503,711	25,58
504,06	25,62
504,409	25,67
504,758	25,68
505,106	25,74
505,455	25,8
505,803	25,84
506,152	25,89
506,5	25,94
506,849	25,97
507,197	26,01
507,546	26,05
507,894	26,11
508,242	26,15
508,59	26,19
508,939	26,23
509,287	26,29
509,635	26,34
509,983	26,39
510,331	26,43
510,679	26,47
511,027	26,51
511,375	26,56
511,723	26,59
512,07	26,64
512,418	26,67
512,766	26,72
513,114	26,76
513,461	26,8
513,809	26,86
514,156	26,93
514,504	26,99
514,851	27,04
515,199	27,09
515,546	27,16
515,893	27,22
516,241	27,31
516,588	27,38
516,935	27,46
517,282	27,49
517,63	27,56
517,977	27,6
518,324	27,67
518,671	27,7
519,018	27,77
519,365	27,82
519,711	27,91
520,058	27,94
520,405	27,98
520,752	28,05
521,099	28,09
521,445	28,17
521,792	28,24
522,138	28,31
522,485	28,38
522,832	28,44
523,178	28,51
523,524	28,53
523,871	28,57
524,217	28,6
524,563	28,68
524,91	28,78
525,256	28,95
525,602	29,07
525,948	29,17
526,294	29,2
526,64	29,23
526,986	29,24
527,332	29,27
527,678	29,3
528,024	29,3
528,37	29,33
528,716	29,34
529,061	29,36
529,407	29,4
529,753	29,44
530,098	29,49
530,444	29,53
530,789	29,55
531,135	29,59
531,48	29,62
531,826	29,64
532,171	29,66
532,516	29,61
532,862	29,6
533,207	29,57
533,552	29,59
533,897	29,63
534,242	29,64
534,587	29,68
534,932	29,72
535,277	29,74
535,622	29,73
535,967	29,76
536,312	29,79
536,657	29,79
537,001	29,82
537,346	29,81
537,691	29,81
538,035	29,87
538,38	29,9
538,724	29,94
539,069	29,94
539,413	29,95
539,758	29,98
540,102	30,01
540,446	30,02
540,791	30,03
541,135	30,02
541,479	30,02
541,823	30,03
542,167	30,03
542,512	30,07
542,856	30,09
543,2	30,09
543,543	30,08
543,887	30,09
544,231	30,08
544,575	30,09
544,919	30,11
545,262	30,12
545,606	30,12
545,95	30,11
546,293	30,15
546,637	30,14
546,98	30,17
547,324	30,15
547,667	30,21
548,011	30,23
548,354	30,29
548,697	30,31
549,04	30,33
549,384	30,34
549,727	30,33
550,07	30,35
550,413	30,37
550,756	30,41
551,099	30,43
551,442	30,48
551,785	30,49
552,128	30,52
552,47	30,48
552,813	30,49
553,156	30,49
553,499	30,49
553,841	30,52
554,184	30,51
554,526	30,54
554,869	30,5
555,211	30,48
555,554	30,45
555,896	30,44
556,238	30,42
556,581	30,43
556,923	30,41
557,265	30,41
557,607	30,4
557,949	30,37
558,291	30,35
558,633	30,32
558,975	30,33
559,317	30,31
559,659	30,33
560,001	30,32
560,343	30,31
560,685	30,33
561,026	30,32
561,368	30,36
561,71	30,32
562,051	30,29
562,393	30,36
562,734	30,3
563,076	30,3
563,417	30,29
563,759	30,23
564,1	30,23
564,441	30,2
564,782	30,2
565,124	30,18
565,465	30,17
565,806	30,15
566,147	30,14
566,488	30,11
566,829	30,1
567,17	30,07
567,511	30,05
567,851	29,99
568,192	29,93
568,533	29,86
568,874	29,86
569,214	29,84
569,555	29,75
569,895	29,77
570,236	29,74
570,576	29,7
570,917	29,72
571,257	29,7
571,598	29,66
571,938	29,61
572,278	29,64
572,618	29,6
572,959	29,6
573,299	29,56
573,639	29,52
573,979	29,47
574,319	29,44
574,659	29,41
574,999	29,42
575,339	29,43
575,678	29,42
576,018	29,37
576,358	29,36
576,698	29,38
577,037	29,38
577,377	29,37
577,716	29,35
578,056	29,3
578,395	29,29
578,735	29,31
579,074	29,32
579,413	29,27
579,753	29,28
580,092	29,25
580,431	29,22
580,77	29,24
581,109	29,24
581,448	29,26
581,787	29,25
582,126	29,2
582,465	29,16
582,804	29,16
583,143	29,18
583,482	29,11
583,82	29,07
584,159	29
584,498	28,96
584,836	28,96
585,175	28,96
585,514	28,89
585,852	28,85
586,19	28,85
586,529	28,83
586,867	28,78
587,205	28,74
587,544	28,76
587,882	28,73
588,22	28,69
588,558	28,64
588,896	28,64
589,234	28,62
589,572	28,61
589,91	28,6
590,248	28,55
590,586	28,57
590,924	28,58
591,262	28,61
591,599	28,63
591,937	28,63
592,275	28,62
592,612	28,64
592,95	28,64
593,287	28,66
593,625	28,61
593,962	28,61
594,299	28,6
594,637	28,58
594,974	28,56
595,311	28,58
595,648	28,59
595,985	28,57
596,322	28,56
596,659	28,59
596,996	28,6
597,333	28,57
597,67	28,56
598,007	28,55
598,344	28,5
598,681	28,52
599,017	28,46
599,354	28,44
599,691	28,46
600,027	28,47
600,364	28,38
600,7	28,43
601,037	28,39
601,373	28,38
601,71	28,39
602,046	28,39
602,382	28,35
602,718	28,32
603,054	28,3
603,391	28,3
603,727	28,24
604,063	28,22
604,399	28,21
604,735	28,22
605,071	28,2
605,406	28,19
605,742	28,16
606,078	28,17
606,414	28,13
606,749	28,09
607,085	28,04
607,421	28,05
607,756	28,03
608,092	28,02
608,427	28
608,762	27,96
609,098	27,93
609,433	27,92
609,768	27,9
610,104	27,92
610,439	27,86
610,774	27,88
611,109	27,84
611,444	27,83
611,779	27,82
612,114	27,78
612,449	27,76
612,784	27,71
613,118	27,69
613,453	27,67
613,788	27,65
614,123	27,63
614,457	27,63
614,792	27,61
615,126	27,59
615,461	27,57
615,795	27,58
616,13	27,56
616,464	27,58
616,798	27,56
617,132	27,52
617,467	27,52
617,801	27,43
618,135	27,4
618,469	27,37
618,803	27,32
619,137	27,32
619,471	27,27
619,805	27,27
620,139	27,24
620,472	27,22
620,806	27,22
621,14	27,19
621,473	27,15
621,807	27,1
622,141	27,11
622,474	27,09
622,808	27,04
623,141	27,04
623,474	26,98
623,808	26,99
624,141	26,97
624,474	26,99
624,807	26,97
625,141	26,96
625,474	26,99
625,807	26,99
626,14	26,94
626,473	26,97
626,806	26,97
627,138	27,01
627,471	26,97
627,804	26,97
628,137	27,01
628,469	26,95
628,802	26,96
629,135	26,97
629,467	27
629,8	26,98
630,132	26,94
630,465	26,96
630,797	26,98
631,129	26,94
631,461	26,9
631,794	26,99
632,126	26,94
632,458	26,88
632,79	26,86
633,122	26,92
633,454	26,92
633,786	26,88
634,118	26,83
634,45	26,86
634,781	26,86
635,113	26,78
635,445	26,8
635,777	26,75
636,108	26,71
636,44	26,64
636,771	26,64
637,103	26,63
637,434	26,6
637,765	26,54
638,097	26,62
638,428	26,58
638,759	26,49
639,09	26,5
639,422	26,51
639,753	26,49
640,084	26,4
640,415	26,39
640,746	26,39
641,077	26,32
641,407	26,27
641,738	26,23
642,069	26,2
642,4	26,13
642,73	26,12
643,061	26,09
643,392	26,09
643,722	26,05
644,053	25,99
644,383	25,99
644,713	25,94
645,044	25,78
645,374	25,8
645,704	25,81
646,034	25,77
646,365	25,75
646,695	25,78
647,025	25,8
647,355	25,7
647,685	25,63
648,015	25,65
648,344	25,67
648,674	25,63
649,004	25,62
649,334	25,64
