Data from palm_camino1_d_45_25_Reflection_00004.txt Node
Date: Fri Feb 11 15:49:21 ART 2022
User: Nati
Spectrometer: USB2E3644
Trigger mode: 4
Integration Time (sec): 3,520000E-1
Scans to average: 10
Electric dark correction enabled: true
Nonlinearity correction enabled: false
Boxcar width: 10
XAxis mode: Wavelengths
Number of Pixels in Spectrum: 2048
>>>>>Begin Spectral Data<<<<<
178,315	331,69
178,696	410,64
179,076	251,05
179,457	186,87
179,838	239,47
180,218	-460
180,599	1137,5
180,979	13,89
181,36	249,47
181,74	207,45
182,121	197,76
182,501	235,45
182,881	197,27
183,262	78,5
183,642	51,83
184,022	15,05
184,402	28,91
184,783	52,88
185,163	156,73
185,543	414,86
185,923	310,16
186,303	274,18
186,683	412,14
187,063	313,74
187,443	273,3
187,823	231,32
188,203	197,86
188,583	227,55
188,963	129,75
189,343	33,64
189,723	293,75
190,102	128,41
190,482	95,28
190,862	-46,92
191,242	-92,57
191,621	-145
192,001	-204,87
192,38	-255,61
192,76	-180,36
193,14	-141,16
193,519	-126,13
193,898	-44,96
194,278	-15,31
194,657	2,19
195,037	4,09
195,416	-3,28
195,795	1,01
196,175	-1,62
196,554	-4,03
196,933	-6,39
197,312	-15,6
197,692	-15,38
198,071	-15,07
198,45	-8,14
198,829	2,24
199,208	5,5
199,587	1,85
199,966	-0,44
200,345	-3,95
200,724	-15,19
201,103	-15,75
201,482	-14,09
201,86	-20,1
202,239	-25,22
202,618	-25,75
202,997	-19,1
203,375	-18,08
203,754	-20,19
204,133	-27,39
204,511	-23,15
204,89	-20,95
205,269	-17,71
205,647	-17,18
206,026	-19,31
206,404	-22,92
206,782	-23,49
207,161	-24,81
207,539	-17,54
207,918	-9,1
208,296	-0,4
208,674	6,57
209,052	5,09
209,431	2,74
209,809	-2,95
210,187	-5,93
210,565	-6,07
210,943	-9,37
211,321	-4,21
211,699	-0,47
212,077	-1,65
212,455	-11,68
212,833	-7,32
213,211	-1,43
213,589	-6,63
213,967	-16,25
214,345	-29,92
214,722	-40,46
215,1	-43,08
215,478	-51,38
215,855	-53,1
216,233	-63,92
216,611	-71,87
216,988	-80,68
217,366	-102,3
217,743	-105,72
218,121	-111,38
218,498	-132,42
218,876	-150,58
219,253	-150,13
219,631	-185,65
220,008	-207,7
220,385	-214,02
220,762	-267,88
221,14	-242,4
221,517	-203,4
221,894	-156,16
222,271	-127,43
222,648	-123,52
223,025	-120,94
223,402	-125,06
223,78	-131,07
224,157	-133,3
224,533	-129,56
224,91	-115,03
225,287	-90,87
225,664	-71,92
226,041	-48,3
226,418	-42,8
226,795	-32,29
227,171	-33,77
227,548	-19,84
227,925	-14,78
228,301	-14,89
228,678	-9,51
229,055	-3,67
229,431	-6,32
229,808	-5,78
230,184	-8,58
230,561	-11,45
230,937	-8,48
231,313	-1,07
231,69	11,62
232,066	17,06
232,442	15,37
232,819	15,21
233,195	16,73
233,571	13,95
233,947	7,6
234,323	9,34
234,699	9,53
235,075	8,68
235,451	0,5
235,827	0,76
236,203	2,85
236,579	0,22
236,955	-3,06
237,331	0,22
237,707	3,07
238,083	5,86
238,459	7,43
238,834	9,72
239,21	6,6
239,586	3,35
239,961	3,17
240,337	5,32
240,713	5,35
241,088	3,7
241,464	4,17
241,839	4,48
242,215	4,3
242,59	4,8
242,965	6,92
243,341	9,5
243,716	10,49
244,091	13,01
244,467	15,29
244,842	16,09
245,217	15,52
245,592	14,46
245,967	13,8
246,343	14,65
246,718	14,3
247,093	14,21
247,468	14,55
247,843	15,16
248,218	15,96
248,593	16
248,967	15,65
249,342	14,85
249,717	15,02
250,092	14,84
250,467	14,85
250,841	15,05
251,216	16,7
251,591	16,41
251,965	14,32
252,34	12,22
252,714	10,78
253,089	10,5
253,463	10,2
253,838	10,6
254,212	10,04
254,587	10,47
254,961	11,8
255,335	11,93
255,71	12,31
256,084	11,95
256,458	12,21
256,832	13,52
257,206	14,72
257,581	14,83
257,955	15,17
258,329	15,59
258,703	15,51
259,077	14,93
259,451	15,01
259,825	15,07
260,199	14,75
260,572	14,63
260,946	14,8
261,32	15,34
261,694	15,7
262,068	15,51
262,441	14,74
262,815	14,32
263,189	14,1
263,562	13,96
263,936	13,89
264,309	14,13
264,683	14,69
265,056	14,76
265,43	15,16
265,803	15,38
266,176	15,14
266,55	14,58
266,923	13,93
267,296	13,86
267,67	14,48
268,043	15,53
268,416	16,24
268,789	16,29
269,162	15,83
269,535	15,81
269,908	15,98
270,281	16
270,654	16,31
271,027	16,26
271,4	16,08
271,773	16,06
272,146	15,89
272,519	15,15
272,891	14,56
273,264	14,42
273,637	14,04
274,01	14,33
274,382	14,86
274,755	15,21
275,127	15,06
275,5	14,99
275,872	15,31
276,245	15,15
276,617	15,13
276,99	15,55
277,362	15,07
277,734	14,68
278,107	15,07
278,479	14,62
278,851	14,61
279,223	14,72
279,596	14,94
279,968	15,38
280,34	15,6
280,712	16,16
281,084	16,46
281,456	16,84
281,828	16,88
282,2	16,96
282,572	17,08
282,944	17,36
283,315	17,46
283,687	17,21
284,059	17,55
284,431	17,43
284,802	17,31
285,174	17,48
285,546	17,91
285,917	18,2
286,289	18,27
286,66	18,24
287,032	18,11
287,403	18,2
287,775	17,9
288,146	17,84
288,518	17,55
288,889	16,96
289,26	16,63
289,632	16,28
290,003	16,36
290,374	16,31
290,745	16,08
291,116	15,79
291,487	15,59
291,858	14,97
292,229	14,82
292,6	14,48
292,971	14,52
293,342	14,24
293,713	14,01
294,084	14,12
294,455	14,36
294,826	14,42
295,196	14,14
295,567	14,03
295,938	13,98
296,308	14,19
296,679	14,59
297,05	14,66
297,42	14,72
297,791	14,69
298,161	14,64
298,532	14,89
298,902	14,87
299,272	14,92
299,643	15,28
300,013	15,63
300,383	15,98
300,754	16,12
301,124	16,57
301,494	16,72
301,864	16,87
302,234	16,67
302,604	16,62
302,974	16,43
303,344	16,37
303,714	16,19
304,084	15,74
304,454	15,49
304,824	15,3
305,194	15,18
305,563	15,08
305,933	15,09
306,303	15,5
306,673	15,7
307,042	15,82
307,412	15,76
307,781	15,62
308,151	15,64
308,521	15,62
308,89	15,15
309,259	15,21
309,629	15,18
309,998	15,15
310,368	15,06
310,737	15,24
311,106	15,24
311,475	15,18
311,845	15,16
312,214	15,29
312,583	15,52
312,952	15,66
313,321	15,49
313,69	15,67
314,059	15,44
314,428	15,48
314,797	15,5
315,166	15,58
315,535	15,69
315,904	15,56
316,272	15,45
316,641	15,6
317,01	15,1
317,379	14,89
317,747	15,06
318,116	15,17
318,484	14,85
318,853	14,75
319,221	14,89
319,59	14,99
319,958	14,95
320,327	14,86
320,695	14,63
321,063	14,74
321,432	14,74
321,8	14,58
322,168	14,32
322,536	14,12
322,905	14,02
323,273	14,14
323,641	14,37
324,009	14,37
324,377	14,22
324,745	14,25
325,113	14,25
325,481	14,17
325,849	14,14
326,216	14,38
326,584	14,55
326,952	14,57
327,32	14,63
327,687	14,54
328,055	14,39
328,423	14,36
328,79	14,4
329,158	14,11
329,525	13,96
329,893	13,82
330,26	13,97
330,628	13,87
330,995	13,6
331,362	13,31
331,73	13,24
332,097	13,26
332,464	13,23
332,831	13,31
333,199	13,37
333,566	13,49
333,933	13,53
334,3	13,51
334,667	13,46
335,034	13,47
335,401	13,59
335,768	13,77
336,135	13,9
336,502	14,02
336,868	14,16
337,235	14,27
337,602	14,51
337,969	14,48
338,335	14,45
338,702	14,47
339,069	14,59
339,435	14,73
339,802	14,84
340,168	14,91
340,535	14,85
340,901	14,86
341,267	14,84
341,634	14,74
342	14,7
342,366	14,63
342,733	14,58
343,099	14,47
343,465	14,43
343,831	14,43
344,197	14,31
344,563	14,24
344,929	14,15
345,295	14,05
345,661	14,05
346,027	14,15
346,393	14,08
346,759	13,95
347,125	13,83
347,491	13,77
347,856	13,86
348,222	13,83
348,588	13,7
348,953	13,64
349,319	13,61
349,684	13,54
350,05	13,56
350,415	13,5
350,781	13,51
351,146	13,45
351,512	13,36
351,877	13,27
352,242	13,22
352,608	13,26
352,973	13,4
353,338	13,43
353,703	13,4
354,068	13,47
354,433	13,51
354,798	13,45
355,164	13,33
355,528	13,23
355,893	13,24
356,258	13,33
356,623	13,37
356,988	13,41
357,353	13,46
357,718	13,47
358,082	13,52
358,447	13,55
358,812	13,59
359,176	13,63
359,541	13,62
359,905	13,59
360,27	13,58
360,634	13,46
360,999	13,38
361,363	13,31
361,728	13,32
362,092	13,29
362,456	13,29
362,821	13,39
363,185	13,44
363,549	13,43
363,913	13,37
364,277	13,29
364,641	13,32
365,005	13,31
365,369	13,29
365,733	13,25
366,097	13,19
366,461	13,28
366,825	13,3
367,189	13,32
367,553	13,42
367,916	13,38
368,28	13,34
368,644	13,35
369,007	13,38
369,371	13,26
369,734	13,24
370,098	13,35
370,461	13,28
370,825	13,25
371,188	13,21
371,552	13,2
371,915	13,18
372,278	13,13
372,642	13,13
373,005	13,14
373,368	13,13
373,731	13,18
374,094	13,09
374,457	13,08
374,82	13,11
375,183	13,05
375,546	13,07
375,909	13,12
376,272	13,12
376,635	13,1
376,998	13,12
377,361	13,16
377,723	13,09
378,086	13,1
378,449	13,12
378,811	13,15
379,174	13,16
379,537	13,15
379,899	13,16
380,262	13,14
380,624	13,1
380,987	13,12
381,349	13,14
381,711	13,13
382,074	13,1
382,436	13,11
382,798	13,16
383,16	13,02
383,522	12,92
383,884	12,9
384,247	12,94
384,609	12,93
384,971	12,92
385,333	12,92
385,695	12,96
386,056	12,93
386,418	12,92
386,78	13
387,142	13
387,504	13
387,865	12,98
388,227	13,03
388,589	13,04
388,95	12,98
389,312	12,95
389,673	13,01
390,035	12,98
390,396	12,96
390,758	13,04
391,119	13,16
391,48	13,15
391,842	13,13
392,203	13,11
392,564	13,15
392,925	13,14
393,286	13,11
393,648	13,12
394,009	13,12
394,37	13,07
394,731	13,09
395,092	13,08
395,452	13,13
395,813	13,15
396,174	13,14
396,535	13,17
396,896	13,2
397,257	13,19
397,617	13,2
397,978	13,24
398,338	13,23
398,699	13,23
399,06	13,31
399,42	13,28
399,781	13,37
400,141	13,33
400,501	13,35
400,862	13,4
401,222	13,37
401,582	13,43
401,943	13,42
402,303	13,45
402,663	13,46
403,023	13,45
403,383	13,45
403,743	13,49
404,103	13,49
404,463	13,49
404,823	13,55
405,183	13,56
405,543	13,53
405,903	13,56
406,262	13,55
406,622	13,55
406,982	13,63
407,342	13,63
407,701	13,69
408,061	13,73
408,42	13,76
408,78	13,81
409,139	13,84
409,499	13,88
409,858	13,9
410,217	13,96
410,577	14,02
410,936	14,05
411,295	14,06
411,655	14,14
412,014	14,21
412,373	14,24
412,732	14,33
413,091	14,38
413,45	14,47
413,809	14,53
414,168	14,55
414,527	14,57
414,886	14,59
415,245	14,62
415,603	14,65
415,962	14,67
416,321	14,69
416,679	14,68
417,038	14,72
417,397	14,75
417,755	14,78
418,114	14,82
418,472	14,83
418,831	14,88
419,189	14,87
419,547	14,9
419,906	14,91
420,264	14,91
420,622	14,94
420,981	14,96
421,339	14,98
421,697	15,03
422,055	15,07
422,413	15,13
422,771	15,17
423,129	15,19
423,487	15,22
423,845	15,26
424,203	15,31
424,56	15,35
424,918	15,39
425,276	15,43
425,634	15,46
425,991	15,52
426,349	15,54
426,707	15,6
427,064	15,61
427,422	15,65
427,779	15,73
428,137	15,78
428,494	15,83
428,851	15,89
429,209	15,95
429,566	15,99
429,923	16,03
430,28	16,05
430,637	16,15
430,995	16,16
431,352	16,18
431,709	16,19
432,066	16,22
432,423	16,26
432,78	16,28
433,137	16,32
433,493	16,33
433,85	16,39
434,207	16,37
434,564	16,45
434,92	16,47
435,277	16,5
435,634	16,52
435,99	16,54
436,347	16,56
436,703	16,58
437,06	16,61
437,416	16,63
437,773	16,65
438,129	16,64
438,485	16,68
438,841	16,7
439,198	16,74
439,554	16,75
439,91	16,79
440,266	16,79
440,622	16,81
440,978	16,84
441,334	16,85
441,69	16,9
442,046	16,92
442,402	16,94
442,758	16,95
443,113	16,97
443,469	16,99
443,825	17,01
444,181	17,04
444,536	17,06
444,892	17,09
445,247	17,11
445,603	17,13
445,958	17,13
446,314	17,15
446,669	17,16
447,025	17,19
447,38	17,19
447,735	17,22
448,09	17,24
448,446	17,25
448,801	17,25
449,156	17,26
449,511	17,28
449,866	17,31
450,221	17,33
450,576	17,36
450,931	17,42
451,286	17,45
451,641	17,45
451,995	17,45
452,35	17,47
452,705	17,47
453,06	17,49
453,414	17,52
453,769	17,54
454,123	17,56
454,478	17,55
454,832	17,59
455,187	17,53
455,541	17,55
455,896	17,54
456,25	17,56
456,604	17,58
456,958	17,57
457,313	17,58
457,667	17,57
458,021	17,58
458,375	17,57
458,729	17,58
459,083	17,6
459,437	17,61
459,791	17,61
460,145	17,63
460,499	17,61
460,852	17,6
461,206	17,63
461,56	17,63
461,914	17,64
462,267	17,63
462,621	17,67
462,974	17,67
463,328	17,69
463,681	17,71
464,035	17,71
464,388	17,72
464,742	17,71
465,095	17,73
465,448	17,73
465,801	17,71
466,155	17,69
466,508	17,67
466,861	17,67
467,214	17,67
467,567	17,67
467,92	17,71
468,273	17,71
468,626	17,69
468,979	17,68
469,332	17,69
469,684	17,71
470,037	17,71
470,39	17,71
470,743	17,72
471,095	17,69
471,448	17,69
471,8	17,67
472,153	17,66
472,505	17,66
472,858	17,68
473,21	17,69
473,562	17,7
473,915	17,71
474,267	17,71
474,619	17,73
474,971	17,72
475,324	17,69
475,676	17,73
476,028	17,7
476,38	17,71
476,732	17,71
477,084	17,69
477,436	17,69
477,787	17,7
478,139	17,7
478,491	17,7
478,843	17,67
479,195	17,71
479,546	17,7
479,898	17,71
480,249	17,77
480,601	17,85
480,952	17,89
481,304	17,91
481,655	17,92
482,007	17,9
482,358	17,91
482,709	17,92
483,061	17,89
483,412	17,89
483,763	17,89
484,114	17,9
484,465	17,89
484,816	17,9
485,167	17,89
485,518	17,89
485,869	17,89
486,22	17,9
486,571	17,89
486,922	17,91
487,272	17,92
487,623	17,89
487,974	17,85
488,324	17,83
488,675	17,84
489,025	17,83
489,376	17,85
489,726	17,85
490,077	17,86
490,427	17,88
490,778	17,9
491,128	17,91
491,478	17,9
491,828	17,94
492,179	17,94
492,529	17,96
492,879	17,97
493,229	18
493,579	18,01
493,929	18,02
494,279	18,03
494,629	18,05
494,979	18,09
495,328	18,12
495,678	18,14
496,028	18,15
496,378	18,19
496,727	18,22
497,077	18,25
497,426	18,31
497,776	18,29
498,125	18,31
498,475	18,33
498,824	18,36
499,174	18,36
499,523	18,4
499,872	18,44
500,221	18,48
500,571	18,52
500,92	18,56
501,269	18,62
501,618	18,66
501,967	18,69
502,316	18,72
502,665	18,73
503,014	18,8
503,363	18,87
503,711	18,92
504,06	18,98
504,409	19,02
504,758	19,06
505,106	19,13
505,455	19,2
505,803	19,24
506,152	19,28
506,5	19,35
506,849	19,42
507,197	19,47
507,546	19,54
507,894	19,57
508,242	19,64
508,59	19,68
508,939	19,74
509,287	19,83
509,635	19,89
509,983	19,96
510,331	20
510,679	20,05
511,027	20,09
511,375	20,14
511,723	20,21
512,07	20,26
512,418	20,35
512,766	20,44
513,114	20,53
513,461	20,63
513,809	20,68
514,156	20,75
514,504	20,84
514,851	20,92
515,199	21,04
515,546	21,13
515,893	21,23
516,241	21,34
516,588	21,42
516,935	21,49
517,282	21,56
517,63	21,64
517,977	21,69
518,324	21,76
518,671	21,83
519,018	21,91
519,365	21,99
519,711	22,05
520,058	22,11
520,405	22,18
520,752	22,25
521,099	22,37
521,445	22,47
521,792	22,56
522,138	22,66
522,485	22,76
522,832	22,88
523,178	22,99
523,524	23,07
523,871	23,16
524,217	23,28
524,563	23,41
524,91	23,56
525,256	23,72
525,602	23,89
525,948	24,01
526,294	24,08
526,64	24,13
526,986	24,19
527,332	24,23
527,678	24,26
528,024	24,31
528,37	24,36
528,716	24,4
529,061	24,43
529,407	24,49
529,753	24,53
530,098	24,59
530,444	24,64
530,789	24,69
531,135	24,72
531,48	24,76
531,826	24,78
532,171	24,83
532,516	24,86
532,862	24,88
533,207	24,9
533,552	24,93
533,897	24,98
534,242	25
534,587	25,04
534,932	25,1
535,277	25,11
535,622	25,1
535,967	25,14
536,312	25,17
536,657	25,19
537,001	25,22
537,346	25,24
537,691	25,26
538,035	25,3
538,38	25,35
538,724	25,37
539,069	25,39
539,413	25,38
539,758	25,41
540,102	25,43
540,446	25,41
540,791	25,43
541,135	25,44
541,479	25,46
541,823	25,47
542,167	25,49
542,512	25,53
542,856	25,53
543,2	25,53
543,543	25,55
543,887	25,57
544,231	25,6
544,575	25,6
544,919	25,61
545,262	25,62
545,606	25,63
545,95	25,65
546,293	25,68
546,637	25,71
546,98	25,73
547,324	25,72
547,667	25,82
548,011	25,83
548,354	25,84
548,697	25,83
549,04	25,82
549,384	25,82
549,727	25,79
550,07	25,83
550,413	25,83
550,756	25,81
551,099	25,82
551,442	25,82
551,785	25,86
552,128	25,88
552,47	25,87
552,813	25,85
553,156	25,81
553,499	25,8
553,841	25,8
554,184	25,8
554,526	25,8
554,869	25,76
555,211	25,75
555,554	25,74
555,896	25,75
556,238	25,75
556,581	25,73
556,923	25,72
557,265	25,68
557,607	25,67
557,949	25,69
558,291	25,66
558,633	25,6
558,975	25,57
559,317	25,52
559,659	25,49
560,001	25,49
560,343	25,51
560,685	25,47
561,026	25,43
561,368	25,38
561,71	25,33
562,051	25,28
562,393	25,3
562,734	25,2
563,076	25,14
563,417	25,12
563,759	25,1
564,1	25,06
564,441	25,05
564,782	24,99
565,124	24,91
565,465	24,84
565,806	24,83
566,147	24,78
566,488	24,76
566,829	24,71
567,17	24,63
567,511	24,54
567,851	24,52
568,192	24,46
568,533	24,38
568,874	24,35
569,214	24,29
569,555	24,17
569,895	24,16
570,236	24,11
570,576	24,02
570,917	23,92
571,257	23,85
571,598	23,79
571,938	23,77
572,278	23,73
572,618	23,69
572,959	23,63
573,299	23,58
573,639	23,5
573,979	23,46
574,319	23,46
574,659	23,42
574,999	23,35
575,339	23,3
575,678	23,29
576,018	23,23
576,358	23,18
576,698	23,15
577,037	23,11
577,377	23,05
577,716	23,03
578,056	23,03
578,395	23
578,735	22,97
579,074	22,9
579,413	22,86
579,753	22,82
580,092	22,77
580,431	22,73
580,77	22,74
581,109	22,68
581,448	22,6
581,787	22,55
582,126	22,51
582,465	22,49
582,804	22,44
583,143	22,45
583,482	22,39
583,82	22,37
584,159	22,33
584,498	22,32
584,836	22,29
585,175	22,24
585,514	22,2
585,852	22,13
586,19	22,11
586,529	22,05
586,867	22,03
587,205	22,03
587,544	21,99
587,882	21,91
588,22	21,88
588,558	21,89
588,896	21,9
589,234	21,88
589,572	21,83
589,91	21,81
590,248	21,78
590,586	21,8
590,924	21,78
591,262	21,8
591,599	21,77
591,937	21,78
592,275	21,77
592,612	21,76
592,95	21,77
593,287	21,77
593,625	21,73
593,962	21,69
594,299	21,63
594,637	21,61
594,974	21,61
595,311	21,61
595,648	21,57
595,985	21,54
596,322	21,55
596,659	21,61
596,996	21,59
597,333	21,53
597,67	21,51
598,007	21,51
598,344	21,46
598,681	21,52
599,017	21,44
599,354	21,39
599,691	21,38
600,027	21,38
600,364	21,33
600,7	21,36
601,037	21,38
601,373	21,38
601,71	21,37
602,046	21,39
602,382	21,36
602,718	21,35
603,054	21,33
603,391	21,28
603,727	21,22
604,063	21,23
604,399	21,23
604,735	21,23
605,071	21,18
605,406	21,14
605,742	21,06
606,078	21,07
606,414	21,06
606,749	21,02
607,085	20,97
607,421	20,98
607,756	20,92
608,092	20,86
608,427	20,82
608,762	20,79
609,098	20,74
609,433	20,71
609,768	20,7
610,104	20,7
610,439	20,66
610,774	20,66
611,109	20,55
611,444	20,55
611,779	20,54
612,114	20,54
612,449	20,5
612,784	20,5
613,118	20,47
613,453	20,46
613,788	20,43
614,123	20,39
614,457	20,32
614,792	20,32
615,126	20,31
615,461	20,28
615,795	20,28
616,13	20,25
616,464	20,25
616,798	20,21
617,132	20,17
617,467	20,17
617,801	20,12
618,135	20,18
618,469	20,17
618,803	20,11
619,137	20,06
619,471	20,08
619,805	19,99
620,139	19,98
620,472	19,98
620,806	19,97
621,14	19,95
621,473	19,95
621,807	19,89
622,141	19,88
622,474	19,86
622,808	19,84
623,141	19,81
623,474	19,77
623,808	19,75
624,141	19,74
624,474	19,75
624,807	19,72
625,141	19,7
625,474	19,68
625,807	19,65
626,14	19,66
626,473	19,69
626,806	19,76
627,138	19,8
627,471	19,77
627,804	19,79
628,137	19,81
628,469	19,76
628,802	19,77
629,135	19,74
629,467	19,76
629,8	19,76
630,132	19,74
630,465	19,74
630,797	19,78
631,129	19,75
631,461	19,75
631,794	19,81
632,126	19,76
632,458	19,76
632,79	19,75
633,122	19,75
633,454	19,7
633,786	19,61
634,118	19,54
634,45	19,56
634,781	19,52
635,113	19,48
635,445	19,47
635,777	19,46
636,108	19,44
636,44	19,4
636,771	19,39
637,103	19,37
637,434	19,35
637,765	19,28
638,097	19,36
638,428	19,28
638,759	19,14
639,09	19,1
639,422	19,06
639,753	19,03
640,084	18,93
640,415	18,9
640,746	18,95
641,077	18,88
641,407	18,79
641,738	18,76
642,069	18,74
642,4	18,71
642,73	18,71
643,061	18,73
643,392	18,72
643,722	18,7
644,053	18,73
644,383	18,7
644,713	18,7
645,044	18,6
645,374	18,61
645,704	18,62
646,034	18,64
646,365	18,64
646,695	18,71
647,025	18,74
647,355	18,64
647,685	18,51
648,015	18,53
648,344	18,58
648,674	18,53
649,004	18,47
649,334	18,47
