Data from palm_tumV_d_Reflection_00002.txt Node
Date: Fri Feb 11 16:18:51 ART 2022
User: Nati
Spectrometer: USB2E3644
Trigger mode: 4
Integration Time (sec): 4,100000E-2
Scans to average: 10
Electric dark correction enabled: true
Nonlinearity correction enabled: false
Boxcar width: 10
XAxis mode: Wavelengths
Number of Pixels in Spectrum: 2048
>>>>>Begin Spectral Data<<<<<
178,315	1982,76
178,696	-2900
179,076	-219,76
179,457	14,29
179,838	254,84
180,218	-129,41
180,599	-294,29
180,979	57,14
181,36	-95,51
181,74	-123,47
182,121	-368,29
182,501	-219,48
182,881	-174,7
183,262	-70,8
183,642	-133,59
184,022	-61,63
184,402	-61,31
184,783	-60,81
185,163	-119,38
185,543	-109,85
185,923	-157,59
186,303	-142,06
186,683	-82,69
187,063	-97,54
187,443	-95,57
187,823	-82,53
188,203	-52,58
188,583	-47,52
188,963	-46,16
189,343	-48,97
189,723	-33,25
190,102	-9,85
190,482	4,59
190,862	11,29
191,242	10,83
191,621	18,54
192,001	17,67
192,38	21,25
192,76	20,28
193,14	20,19
193,519	17,87
193,898	18,48
194,278	18,16
194,657	22,04
195,037	28,06
195,416	31,92
195,795	36,8
196,175	35,96
196,554	32,29
196,933	32,93
197,312	35,03
197,692	32,63
198,071	26,97
198,45	21,11
198,829	22,21
199,208	30,5
199,587	38,94
199,966	45,29
200,345	46,32
200,724	49,73
201,103	53,46
201,482	56,61
201,86	61
202,239	64,23
202,618	62,47
202,997	60,24
203,375	58,56
203,754	59,34
204,133	61,11
204,511	65,49
204,89	60,55
205,269	56,53
205,647	56,93
206,026	58,77
206,404	54,8
206,782	51,98
207,161	43,18
207,539	32,27
207,918	22,6
208,296	23,34
208,674	26,04
209,052	27,3
209,431	28,19
209,809	31,62
210,187	35,14
210,565	31,74
210,943	22,34
211,321	7,55
211,699	-7,71
212,077	-7,6
212,455	-9,59
212,833	0,64
213,211	1,98
213,589	-3,36
213,967	-3,02
214,345	10,64
214,722	11,5
215,1	12,49
215,478	27,35
215,855	38,45
216,233	41,94
216,611	40,68
216,988	43,99
217,366	48,81
217,743	44,91
218,121	46,47
218,498	52,64
218,876	56,06
219,253	58,13
219,631	57,95
220,008	51,68
220,385	52,66
220,762	50,76
221,14	54,99
221,517	65,04
221,894	73,02
222,271	70,51
222,648	66,94
223,025	72,38
223,402	65,13
223,78	58,08
224,157	53,04
224,533	51,78
224,91	45,7
225,287	43
225,664	47,81
226,041	48,9
226,418	45
226,795	42,88
227,171	44,54
227,548	45,38
227,925	56,53
228,301	61,02
228,678	59,75
229,055	59,76
229,431	58,8
229,808	58,34
230,184	57,17
230,561	59,21
230,937	60,47
231,313	59,49
231,69	60,64
232,066	59,2
232,442	61,11
232,819	65,83
233,195	65,68
233,571	64,26
233,947	59,84
234,323	62,61
234,699	68,6
235,075	67,8
235,451	65,05
235,827	56,14
236,203	45,12
236,579	43,62
236,955	42,33
237,331	36,18
237,707	32,04
238,083	30,57
238,459	28,19
238,834	23,54
239,21	20,77
239,586	19,04
239,961	21,71
240,337	22,61
240,713	21,78
241,088	23,01
241,464	21,76
241,839	20,15
242,215	18,78
242,59	17,56
242,965	18,48
243,341	20,18
243,716	21,09
244,091	22,63
244,467	22,6
244,842	22,72
245,217	24,44
245,592	24,12
245,967	23,39
246,343	22,36
246,718	22,27
247,093	22,75
247,468	22,89
247,843	21,91
248,218	20,09
248,593	19,34
248,967	18,87
249,342	19,42
249,717	20,42
250,092	20,73
250,467	19,49
250,841	19,7
251,216	19,62
251,591	20,51
251,965	20,36
252,34	21,45
252,714	21,84
253,089	20,03
253,463	19,38
253,838	19,28
254,212	19,01
254,587	19,53
254,961	20,66
255,335	20,39
255,71	20,77
256,084	21,03
256,458	21,52
256,832	22,12
257,206	21,78
257,581	21,59
257,955	22,68
258,329	23,88
258,703	24,18
259,077	23,69
259,451	22,59
259,825	22,08
260,199	21,21
260,572	20,46
260,946	20,75
261,32	21,14
261,694	21,82
262,068	22,69
262,441	22,44
262,815	21,78
263,189	21,75
263,562	21,24
263,936	21,38
264,309	21,09
264,683	19,88
265,056	19,42
265,43	19,07
265,803	17,51
266,176	16,81
266,55	16,1
266,923	15,55
267,296	16,14
267,67	16,92
268,043	17,12
268,416	18,04
268,789	18,3
269,162	19,01
269,535	19,95
269,908	20,06
270,281	20,54
270,654	20,94
271,027	21,27
271,4	22,14
271,773	22,56
272,146	22,96
272,519	22,76
272,891	22,35
273,264	22,52
273,637	23,36
274,01	23,45
274,382	23,61
274,755	24,24
275,127	24,54
275,5	24,46
275,872	24,56
276,245	24,02
276,617	23,69
276,99	23,49
277,362	22,63
277,734	22,14
278,107	22,32
278,479	22,45
278,851	21,92
279,223	21,16
279,596	20,96
279,968	20,74
280,34	21,18
280,712	21,78
281,084	21,55
281,456	20,27
281,828	19,63
282,2	19,38
282,572	19,23
282,944	19,01
283,315	18,93
283,687	18,66
284,059	18,91
284,431	19,24
284,802	19,08
285,174	18,93
285,546	18,86
285,917	18,37
286,289	18,52
286,66	18,57
287,032	18,45
287,403	18,3
287,775	18,39
288,146	18,45
288,518	18,37
288,889	18,46
289,26	18,77
289,632	19,03
290,003	19,16
290,374	19,1
290,745	19,16
291,116	19,21
291,487	19,66
291,858	19,17
292,229	18,72
292,6	18,35
292,971	18,62
293,342	19,13
293,713	19,22
294,084	18,85
294,455	18,68
294,826	18,92
295,196	18,92
295,567	18,96
295,938	19,18
296,308	19,23
296,679	18,83
297,05	18,5
297,42	18,65
297,791	18,91
298,161	19,11
298,532	18,99
298,902	18,87
299,272	18,81
299,643	19,09
300,013	19,19
300,383	19,7
300,754	19,77
301,124	19,54
301,494	19,51
301,864	19,4
302,234	19,44
302,604	19,09
302,974	19,35
303,344	19,44
303,714	19,19
304,084	19,12
304,454	19,56
304,824	19,77
305,194	19,67
305,563	19,42
305,933	19,12
306,303	19,28
306,673	19,19
307,042	19,17
307,412	19,39
307,781	19,57
308,151	19,23
308,521	18,82
308,89	18,57
309,259	18,56
309,629	18,87
309,998	19,12
310,368	19,34
310,737	18,89
311,106	18,62
311,475	18,49
311,845	18,57
312,214	18,47
312,583	18,6
312,952	18,76
313,321	18,76
313,69	18,73
314,059	18,6
314,428	18,78
314,797	18,49
315,166	18,52
315,535	18,66
315,904	18,65
316,272	18,74
316,641	18,91
317,01	19,07
317,379	19,1
317,747	19,21
318,116	19,1
318,484	19,61
318,853	19,39
319,221	19,18
319,59	18,8
319,958	18,78
320,327	18,51
320,695	18,2
321,063	17,96
321,432	17,8
321,8	17,76
322,168	17,55
322,536	17,67
322,905	17,36
323,273	17,17
323,641	17,14
324,009	17,12
324,377	16,96
324,745	16,72
325,113	16,39
325,481	16,06
325,849	16
326,216	15,74
326,584	15,73
326,952	15,89
327,32	16,05
327,687	16,11
328,055	16,26
328,423	16,29
328,79	16,42
329,158	16,28
329,525	15,88
329,893	15,75
330,26	15,66
330,628	15,54
330,995	15,35
331,362	15,34
331,73	15,33
332,097	15,39
332,464	15,59
332,831	15,65
333,199	15,69
333,566	15,84
333,933	15,97
334,3	16,25
334,667	16,16
335,034	15,93
335,401	15,78
335,768	15,7
336,135	15,68
336,502	15,61
336,868	15,7
337,235	15,84
337,602	15,85
337,969	15,76
338,335	15,9
338,702	16,02
339,069	15,97
339,435	15,89
339,802	15,83
340,168	15,72
340,535	15,75
340,901	15,78
341,267	15,77
341,634	15,64
342	15,41
342,366	15,26
342,733	15,27
343,099	15,24
343,465	15,21
343,831	15,18
344,197	15,12
344,563	15,18
344,929	15,31
345,295	15,36
345,661	15,28
346,027	15,19
346,393	15,15
346,759	15,09
347,125	15,15
347,491	15,24
347,856	15,29
348,222	15,3
348,588	15,35
348,953	15,36
349,319	15,36
349,684	15,34
350,05	15,45
350,415	15,56
350,781	15,66
351,146	15,68
351,512	15,6
351,877	15,48
352,242	15,47
352,608	15,36
352,973	15,36
353,338	15,38
353,703	15,24
354,068	15,11
354,433	15,11
354,798	14,98
355,164	14,85
355,528	14,8
355,893	14,91
356,258	14,87
356,623	14,72
356,988	14,67
357,353	14,65
357,718	14,69
358,082	14,62
358,447	14,58
358,812	14,68
359,176	14,84
359,541	14,98
359,905	14,97
360,27	15,05
360,634	14,99
360,999	14,98
361,363	15,03
361,728	14,98
362,092	14,98
362,456	14,95
362,821	14,95
363,185	14,88
363,549	14,75
363,913	14,65
364,277	14,69
364,641	14,72
365,005	14,78
365,369	14,69
365,733	14,71
366,097	14,73
366,461	14,67
366,825	14,54
367,189	14,46
367,553	14,35
367,916	14,29
368,28	14,31
368,644	14,41
369,007	14,42
369,371	14,54
369,734	14,57
370,098	14,57
370,461	14,57
370,825	14,53
371,188	14,48
371,552	14,55
371,915	14,52
372,278	14,51
372,642	14,48
373,005	14,51
373,368	14,47
373,731	14,41
374,094	14,33
374,457	14,28
374,82	14,27
375,183	14,39
375,546	14,37
375,909	14,35
376,272	14,35
376,635	14,34
376,998	14,26
377,361	14,22
377,723	14,18
378,086	14,15
378,449	14,21
378,811	14,23
379,174	14,19
379,537	14,24
379,899	14,22
380,262	14,26
380,624	14,26
380,987	14,22
381,349	14,17
381,711	14,13
382,074	14,15
382,436	14,14
382,798	14,16
383,16	14,11
383,522	14,04
383,884	13,97
384,247	13,94
384,609	13,96
384,971	13,98
385,333	14,05
385,695	14,07
386,056	14,01
386,418	13,98
386,78	13,93
387,142	13,91
387,504	13,87
387,865	13,87
388,227	13,86
388,589	13,88
388,95	13,92
389,312	13,98
389,673	13,95
390,035	13,89
390,396	13,79
390,758	13,81
391,119	13,93
391,48	13,94
391,842	13,92
392,203	13,89
392,564	13,93
392,925	13,9
393,286	13,91
393,648	13,91
394,009	13,9
394,37	13,91
394,731	13,87
395,092	13,86
395,452	13,84
395,813	13,81
396,174	13,8
396,535	13,76
396,896	13,74
397,257	13,75
397,617	13,83
397,978	13,87
398,338	13,88
398,699	13,78
399,06	13,78
399,42	13,84
399,781	13,85
400,141	13,79
400,501	13,78
400,862	13,78
401,222	13,79
401,582	13,84
401,943	13,87
402,303	13,95
402,663	14,01
403,023	13,98
403,383	13,98
403,743	13,96
404,103	13,94
404,463	13,98
404,823	13,98
405,183	13,97
405,543	13,94
405,903	13,92
406,262	13,94
406,622	13,89
406,982	13,85
407,342	13,85
407,701	13,84
408,061	13,83
408,42	13,82
408,78	13,8
409,139	13,82
409,499	13,81
409,858	13,78
410,217	13,77
410,577	13,8
410,936	13,86
411,295	13,91
411,655	13,98
412,014	13,99
412,373	14
412,732	13,97
413,091	13,98
413,45	13,96
413,809	13,98
414,168	14,05
414,527	14,08
414,886	14,09
415,245	14,12
415,603	14,15
415,962	14,14
416,321	14,12
416,679	14,07
417,038	14,08
417,397	14,07
417,755	14,06
418,114	14,05
418,472	14,04
418,831	14,04
419,189	14,03
419,547	14,04
419,906	14,07
420,264	14,1
420,622	14,13
420,981	14,18
421,339	14,2
421,697	14,2
422,055	14,2
422,413	14,2
422,771	14,21
423,129	14,24
423,487	14,27
423,845	14,3
424,203	14,35
424,56	14,38
424,918	14,4
425,276	14,45
425,634	14,49
425,991	14,52
426,349	14,54
426,707	14,56
427,064	14,57
427,422	14,58
427,779	14,64
428,137	14,65
428,494	14,67
428,851	14,72
429,209	14,78
429,566	14,84
429,923	14,9
430,28	14,93
430,637	14,98
430,995	15,02
431,352	15,06
431,709	15,07
432,066	15,09
432,423	15,11
432,78	15,14
433,137	15,17
433,493	15,23
433,85	15,28
434,207	15,32
434,564	15,35
434,92	15,37
435,277	15,4
435,634	15,47
435,99	15,52
436,347	15,55
436,703	15,56
437,06	15,62
437,416	15,66
437,773	15,7
438,129	15,72
438,485	15,75
438,841	15,78
439,198	15,8
439,554	15,83
439,91	15,87
440,266	15,87
440,622	15,9
440,978	15,92
441,334	15,93
441,69	15,98
442,046	16,01
442,402	16,06
442,758	16,06
443,113	16,08
443,469	16,09
443,825	16,13
444,181	16,16
444,536	16,19
444,892	16,2
445,247	16,25
445,603	16,3
445,958	16,32
446,314	16,35
446,669	16,37
447,025	16,38
447,38	16,41
447,735	16,45
448,09	16,48
448,446	16,51
448,801	16,55
449,156	16,56
449,511	16,58
449,866	16,6
450,221	16,65
450,576	16,67
450,931	16,74
451,286	16,76
451,641	16,8
451,995	16,82
452,35	16,88
452,705	16,87
453,06	16,87
453,414	16,86
453,769	16,88
454,123	16,89
454,478	16,9
454,832	16,91
455,187	16,92
455,541	16,91
455,896	16,91
456,25	16,91
456,604	16,93
456,958	16,93
457,313	16,94
457,667	16,94
458,021	16,94
458,375	16,96
458,729	16,95
459,083	16,95
459,437	16,95
459,791	16,92
460,145	16,92
460,499	16,95
460,852	16,96
461,206	16,96
461,56	16,99
461,914	17
462,267	16,99
462,621	16,97
462,974	17,01
463,328	17,01
463,681	17,02
464,035	17,02
464,388	17,02
464,742	17,04
465,095	17,07
465,448	17,08
465,801	17,07
466,155	17,09
466,508	17,09
466,861	17,08
467,214	17,1
467,567	17,13
467,92	17,11
468,273	17,1
468,626	17,11
468,979	17,08
469,332	17,09
469,684	17,12
470,037	17,13
470,39	17,11
470,743	17,09
471,095	17,11
471,448	17,12
471,8	17,14
472,153	17,16
472,505	17,14
472,858	17,15
473,21	17,13
473,562	17,13
473,915	17,13
474,267	17,14
474,619	17,16
474,971	17,17
475,324	17,19
475,676	17,22
476,028	17,21
476,38	17,25
476,732	17,26
477,084	17,26
477,436	17,27
477,787	17,26
478,139	17,25
478,491	17,23
478,843	17,21
479,195	17,21
479,546	17,18
479,898	17,19
480,249	17,16
480,601	17,18
480,952	17,21
481,304	17,19
481,655	17,17
482,007	17,15
482,358	17,12
482,709	17,1
483,061	17,09
483,412	17,1
483,763	17,08
484,114	17,07
484,465	17,07
484,816	17,09
485,167	17,09
485,518	17,11
485,869	17,1
486,22	17,11
486,571	17,12
486,922	17,12
487,272	17,12
487,623	17,13
487,974	17,11
488,324	17,09
488,675	17,11
489,025	17,13
489,376	17,14
489,726	17,16
490,077	17,17
490,427	17,17
490,778	17,17
491,128	17,18
491,478	17,2
491,828	17,22
492,179	17,2
492,529	17,21
492,879	17,22
493,229	17,25
493,579	17,27
493,929	17,25
494,279	17,27
494,629	17,28
494,979	17,29
495,328	17,33
495,678	17,36
496,028	17,36
496,378	17,41
496,727	17,45
497,077	17,49
497,426	17,53
497,776	17,56
498,125	17,6
498,475	17,65
498,824	17,68
499,174	17,71
499,523	17,74
499,872	17,76
500,221	17,77
500,571	17,79
500,92	17,81
501,269	17,86
501,618	17,89
501,967	17,95
502,316	18,01
502,665	18,02
503,014	18,09
503,363	18,13
503,711	18,15
504,06	18,17
504,409	18,18
504,758	18,21
505,106	18,26
505,455	18,31
505,803	18,31
506,152	18,36
506,5	18,38
506,849	18,43
507,197	18,48
507,546	18,54
507,894	18,58
508,242	18,62
508,59	18,67
508,939	18,72
509,287	18,76
509,635	18,76
509,983	18,81
510,331	18,83
510,679	18,89
511,027	18,92
511,375	18,97
511,723	19,01
512,07	19,04
512,418	19,08
512,766	19,1
513,114	19,16
513,461	19,2
513,809	19,25
514,156	19,33
514,504	19,38
514,851	19,45
515,199	19,51
515,546	19,59
515,893	19,68
516,241	19,75
516,588	19,8
516,935	19,88
517,282	19,94
517,63	19,96
517,977	19,99
518,324	20,05
518,671	20,1
519,018	20,18
519,365	20,26
519,711	20,31
520,058	20,37
520,405	20,42
520,752	20,48
521,099	20,54
521,445	20,57
521,792	20,62
522,138	20,67
522,485	20,75
522,832	20,82
523,178	20,86
523,524	20,92
523,871	20,99
524,217	21,05
524,563	21,11
524,91	21,18
525,256	21,26
525,602	21,33
525,948	21,38
526,294	21,39
526,64	21,4
526,986	21,42
527,332	21,44
527,678	21,45
528,024	21,46
528,37	21,47
528,716	21,5
529,061	21,52
529,407	21,56
529,753	21,58
530,098	21,59
530,444	21,6
530,789	21,61
531,135	21,62
531,48	21,63
531,826	21,65
532,171	21,68
532,516	21,68
532,862	21,69
533,207	21,71
533,552	21,72
533,897	21,75
534,242	21,79
534,587	21,82
534,932	21,85
535,277	21,88
535,622	21,91
535,967	21,9
536,312	21,93
536,657	21,94
537,001	21,98
537,346	22,01
537,691	22,03
538,035	22,08
538,38	22,06
538,724	22,08
539,069	22,1
539,413	22,13
539,758	22,17
540,102	22,19
540,446	22,21
540,791	22,26
541,135	22,26
541,479	22,25
541,823	22,25
542,167	22,26
542,512	22,28
542,856	22,27
543,2	22,29
543,543	22,31
543,887	22,32
544,231	22,31
544,575	22,33
544,919	22,36
545,262	22,38
545,606	22,44
545,95	22,46
546,293	22,48
546,637	22,49
546,98	22,5
547,324	22,52
547,667	22,53
548,011	22,52
548,354	22,55
548,697	22,56
549,04	22,58
549,384	22,58
549,727	22,59
550,07	22,6
550,413	22,63
550,756	22,62
551,099	22,63
551,442	22,64
551,785	22,67
552,128	22,66
552,47	22,66
552,813	22,68
553,156	22,71
553,499	22,73
553,841	22,71
554,184	22,7
554,526	22,71
554,869	22,72
555,211	22,75
555,554	22,75
555,896	22,76
556,238	22,75
556,581	22,76
556,923	22,78
557,265	22,75
557,607	22,72
557,949	22,74
558,291	22,74
558,633	22,73
558,975	22,71
559,317	22,72
559,659	22,7
560,001	22,66
560,343	22,62
560,685	22,6
561,026	22,59
561,368	22,58
561,71	22,55
562,051	22,52
562,393	22,51
562,734	22,51
563,076	22,52
563,417	22,53
563,759	22,5
564,1	22,46
564,441	22,52
564,782	22,52
565,124	22,46
565,465	22,44
565,806	22,45
566,147	22,44
566,488	22,39
566,829	22,39
567,17	22,38
567,511	22,39
567,851	22,36
568,192	22,35
568,533	22,33
568,874	22,32
569,214	22,32
569,555	22,26
569,895	22,23
570,236	22,21
570,576	22,18
570,917	22,16
571,257	22,15
571,598	22,13
571,938	22,12
572,278	22,13
572,618	22,11
572,959	22,09
573,299	22,05
573,639	22,05
573,979	22
574,319	21,99
574,659	21,96
574,999	21,94
575,339	21,9
575,678	21,86
576,018	21,8
576,358	21,77
576,698	21,77
577,037	21,73
577,377	21,7
577,716	21,68
578,056	21,67
578,395	21,63
578,735	21,58
579,074	21,55
579,413	21,5
579,753	21,44
580,092	21,39
580,431	21,39
580,77	21,36
581,109	21,4
581,448	21,37
581,787	21,38
582,126	21,39
582,465	21,4
582,804	21,42
583,143	21,45
583,482	21,4
583,82	21,42
584,159	21,41
584,498	21,41
584,836	21,4
585,175	21,44
585,514	21,41
585,852	21,41
586,19	21,4
586,529	21,38
586,867	21,38
587,205	21,37
587,544	21,35
587,882	21,39
588,22	21,38
588,558	21,37
588,896	21,32
589,234	21,29
589,572	21,26
589,91	21,23
590,248	21,14
590,586	21,16
590,924	21,13
591,262	21,08
591,599	21,05
591,937	21,04
592,275	20,99
592,612	21
592,95	20,94
593,287	20,96
593,625	20,99
593,962	20,94
594,299	20,98
594,637	20,94
594,974	20,87
595,311	20,83
595,648	20,82
595,985	20,82
596,322	20,81
596,659	20,82
596,996	20,86
597,333	20,92
597,67	20,91
598,007	20,93
598,344	20,92
598,681	20,93
599,017	20,94
599,354	20,9
599,691	20,91
600,027	20,9
600,364	20,86
600,7	20,83
601,037	20,86
601,373	20,82
601,71	20,83
602,046	20,8
602,382	20,77
602,718	20,73
603,054	20,72
603,391	20,74
603,727	20,69
604,063	20,65
604,399	20,62
604,735	20,64
605,071	20,59
605,406	20,58
605,742	20,59
606,078	20,53
606,414	20,53
606,749	20,5
607,085	20,5
607,421	20,5
607,756	20,48
608,092	20,44
608,427	20,39
608,762	20,38
609,098	20,4
609,433	20,39
609,768	20,39
610,104	20,38
610,439	20,36
610,774	20,35
611,109	20,32
611,444	20,3
611,779	20,24
612,114	20,25
612,449	20,24
612,784	20,24
613,118	20,25
613,453	20,21
613,788	20,22
614,123	20,17
614,457	20,14
614,792	20,12
615,126	20,13
615,461	20,13
615,795	20,08
616,13	20,05
616,464	20
616,798	20
617,132	19,96
617,467	19,93
617,801	19,92
618,135	19,86
618,469	19,85
618,803	19,81
619,137	19,79
619,471	19,77
619,805	19,69
620,139	19,67
620,472	19,67
620,806	19,62
621,14	19,6
621,473	19,6
621,807	19,59
622,141	19,54
622,474	19,51
622,808	19,51
623,141	19,5
623,474	19,52
623,808	19,48
624,141	19,45
624,474	19,44
624,807	19,43
625,141	19,46
625,474	19,43
625,807	19,42
626,14	19,43
626,473	19,4
626,806	19,42
627,138	19,41
627,471	19,38
627,804	19,38
628,137	19,41
628,469	19,41
628,802	19,37
629,135	19,39
629,467	19,42
629,8	19,44
630,132	19,45
630,465	19,48
630,797	19,48
631,129	19,47
631,461	19,45
631,794	19,44
632,126	19,44
632,458	19,47
632,79	19,5
633,122	19,49
633,454	19,5
633,786	19,45
634,118	19,45
634,45	19,48
634,781	19,48
635,113	19,45
635,445	19,44
635,777	19,45
636,108	19,43
636,44	19,38
636,771	19,37
637,103	19,34
637,434	19,32
637,765	19,33
638,097	19,33
638,428	19,29
638,759	19,33
639,09	19,31
639,422	19,3
639,753	19,29
640,084	19,23
640,415	19,22
640,746	19,24
641,077	19,2
641,407	19,17
641,738	19,19
642,069	19,14
642,4	19,1
642,73	19,03
643,061	18,96
643,392	18,89
643,722	18,85
644,053	18,81
644,383	18,76
644,713	18,76
645,044	18,75
645,374	18,79
645,704	18,69
646,034	18,64
646,365	18,56
646,695	18,47
647,025	18,44
647,355	18,37
647,685	18,34
648,015	18,33
648,344	18,3
648,674	18,25
649,004	18,19
649,334	18,2
649,663	18,24
649,993	18,26
650,323	18,3
650,652	18,23
