Data from palm_tumJ_d_Reflection_16-12-35-663.txt Node
Date: Fri Feb 11 16:12:35 ART 2022
User: Nati
Spectrometer: USB2E3644
Trigger mode: 4
Integration Time (sec): 4,100000E-2
Scans to average: 10
Electric dark correction enabled: true
Nonlinearity correction enabled: false
Boxcar width: 10
XAxis mode: Wavelengths
Number of Pixels in Spectrum: 2048
>>>>>Begin Spectral Data<<<<<
178,315	277,26
178,696	347,92
179,076	307,89
179,457	172,22
179,838	150,29
180,218	127,56
180,599	102,4
180,979	148
181,36	48,15
181,74	39,06
182,121	40,5
182,501	59,89
182,881	61,79
183,262	78,97
183,642	86,07
184,022	92,59
184,402	94,5
184,783	90,68
185,163	88,76
185,543	98,27
185,923	105,84
186,303	107,25
186,683	108,23
187,063	107,24
187,443	106,55
187,823	102,4
188,203	98,88
188,583	94,7
188,963	92,95
189,343	94,27
189,723	96,41
190,102	99,87
190,482	102,75
190,862	105,49
191,242	103,63
191,621	103,81
192,001	105,82
192,38	107,52
192,76	109,56
193,14	111,86
193,519	112,25
193,898	111,17
194,278	112,18
194,657	111,82
195,037	111,46
195,416	108,45
195,795	108,96
196,175	110,13
196,554	111,02
196,933	112,36
197,312	113,04
197,692	113,24
198,071	112,43
198,45	109,83
198,829	107,91
199,208	107,46
199,587	107,13
199,966	105,79
200,345	104,14
200,724	104,58
201,103	106,98
201,482	108,95
201,86	110
202,239	110,07
202,618	111,81
202,997	111,1
203,375	112,16
203,754	113,07
204,133	112,72
204,511	115,21
204,89	117,09
205,269	116,38
205,647	116,71
206,026	115,52
206,404	115,9
206,782	115,62
207,161	115,39
207,539	112,7
207,918	109,14
208,296	106,19
208,674	104,13
209,052	101,89
209,431	100,89
209,809	98,4
210,187	98,23
210,565	98,07
210,943	100,22
211,321	102,21
211,699	103,01
212,077	104,99
212,455	106,18
212,833	104,39
213,211	105,09
213,589	103,95
213,967	104,34
214,345	103,8
214,722	102,8
215,1	102,81
215,478	106,55
215,855	110,93
216,233	117,65
216,611	121,85
216,988	125,54
217,366	126,93
217,743	134,78
218,121	138,52
218,498	137,54
218,876	136,65
219,253	136,3
219,631	140,73
220,008	137,01
220,385	128,79
220,762	129,91
221,14	136,54
221,517	137,72
221,894	139,47
222,271	146,72
222,648	159,69
223,025	166
223,402	166,89
223,78	160,95
224,157	156,14
224,533	153,64
224,91	150,17
225,287	145,8
225,664	139,52
226,041	135,07
226,418	137,06
226,795	139,18
227,171	139,32
227,548	140,47
227,925	141,27
228,301	144,23
228,678	148,64
229,055	148,14
229,431	151,29
229,808	153,37
230,184	149,65
230,561	149,4
230,937	149,18
231,313	148,48
231,69	149,3
232,066	150,14
232,442	149,67
232,819	150,02
233,195	157,75
233,571	166,75
233,947	168,29
234,323	166,12
234,699	164,56
235,075	164,23
235,451	163,42
235,827	169,51
236,203	178,3
236,579	178,34
236,955	175,75
237,331	186,3
237,707	207,2
238,083	231,16
238,459	254,64
238,834	310,11
239,21	389,59
239,586	537,79
239,961	846,78
240,337	1311,56
240,713	1803,14
241,088	1576,5
241,464	1813,94
241,839	-3153,76
242,215	-811,88
242,59	-426,44
242,965	-225,95
243,341	-141,2
243,716	-105,9
244,091	-73,59
244,467	-55,58
244,842	-47,82
245,217	-44,13
245,592	-44,11
245,967	-43,61
246,343	-43,57
246,718	-45,12
247,093	-45,36
247,468	-45,81
247,843	-43,68
248,218	-40,25
248,593	-33,84
248,967	-29,85
249,342	-27,53
249,717	-31,02
250,092	-35,04
250,467	-38,09
250,841	-42,75
251,216	-48,09
251,591	-55,37
251,965	-69,71
252,34	-86,08
252,714	-104,88
253,089	-127,56
253,463	-130,42
253,838	-126,08
254,212	-117,5
254,587	-111,24
254,961	-105,32
255,335	-90,76
255,71	-74,59
256,084	-55,27
256,458	-43,85
256,832	-34,98
257,206	-28,38
257,581	-24,18
257,955	-22,53
258,329	-21,01
258,703	-19,23
259,077	-19,49
259,451	-19,27
259,825	-18,72
260,199	-17,95
260,572	-16,48
260,946	-14,3
261,32	-13,02
261,694	-13,23
262,068	-12,95
262,441	-11,93
262,815	-10,81
263,189	-9,7
263,562	-8,29
263,936	-8,65
264,309	-10,49
264,683	-12,65
265,056	-15,02
265,43	-14,81
265,803	-13,48
266,176	-12,68
266,55	-12,7
266,923	-11,89
267,296	-10,75
267,67	-10,1
268,043	-9,5
268,416	-9,1
268,789	-8,23
269,162	-7,82
269,535	-5,4
269,908	-3,91
270,281	-3,28
270,654	-2,58
271,027	-2,72
271,4	-4,38
271,773	-5,81
272,146	-5,95
272,519	-5,88
272,891	-5,41
273,264	-5,46
273,637	-6,02
274,01	-6,92
274,382	-6,96
274,755	-6,13
275,127	-6,11
275,5	-5,54
275,872	-4,17
276,245	-3,05
276,617	-2,88
276,99	-2,53
277,362	-3,01
277,734	-3,12
278,107	-3,22
278,479	-3,77
278,851	-3,09
279,223	-2,34
279,596	-2,29
279,968	-1,09
280,34	-0,28
280,712	0,29
281,084	0,68
281,456	2,27
281,828	3,87
282,2	5,21
282,572	5,74
282,944	6,9
283,315	7,75
283,687	7,82
284,059	8,12
284,431	8,51
284,802	8,89
285,174	9,11
285,546	9,29
285,917	9,24
286,289	9,25
286,66	9,48
287,032	9,67
287,403	10,3
287,775	10,51
288,146	10,85
288,518	11,15
288,889	11,39
289,26	11,46
289,632	11,53
290,003	11,1
290,374	10,68
290,745	10,31
291,116	9,77
291,487	9,51
291,858	9,49
292,229	9,05
292,6	8,64
292,971	9,06
293,342	9,09
293,713	9,33
294,084	10,06
294,455	9,96
294,826	10,1
295,196	10,36
295,567	10,38
295,938	9,86
296,308	9,63
296,679	10,05
297,05	9,92
297,42	9,51
297,791	9,11
298,161	9,16
298,532	8,96
298,902	8,83
299,272	8,69
299,643	8,52
300,013	8,8
300,383	8,92
300,754	8,66
301,124	8,59
301,494	8,37
301,864	7,86
302,234	7,74
302,604	7,83
302,974	7,88
303,344	7,78
303,714	7,95
304,084	7,82
304,454	7,42
304,824	7,28
305,194	7,4
305,563	7,97
305,933	8,19
306,303	8,43
306,673	8,6
307,042	9,03
307,412	9,2
307,781	9,39
308,151	9,69
308,521	9,93
308,89	9,83
309,259	9,95
309,629	10,08
309,998	10,35
310,368	10,31
310,737	10,33
311,106	10,28
311,475	10,29
311,845	10,44
312,214	10,64
312,583	10,99
312,952	11
313,321	10,72
313,69	10,5
314,059	10,49
314,428	10,75
314,797	10,68
315,166	10,8
315,535	10,83
315,904	10,44
316,272	10,14
316,641	10,21
317,01	10,44
317,379	10,25
317,747	9,84
318,116	9,58
318,484	9,49
318,853	9,7
319,221	9,95
319,59	10,1
319,958	10,01
320,327	9,92
320,695	10,06
321,063	10,34
321,432	10,49
321,8	10,54
322,168	10,44
322,536	10,4
322,905	10,11
323,273	9,96
323,641	10,31
324,009	10,59
324,377	10,74
324,745	10,66
325,113	10,85
325,481	11,08
325,849	11,17
326,216	10,89
326,584	10,74
326,952	10,64
327,32	10,53
327,687	10,61
328,055	10,84
328,423	10,98
328,79	11,01
329,158	10,99
329,525	10,93
329,893	10,9
330,26	10,85
330,628	10,93
330,995	10,98
331,362	11,03
331,73	10,91
332,097	10,93
332,464	10,9
332,831	10,84
333,199	10,81
333,566	11,07
333,933	11,43
334,3	11,56
334,667	11,59
335,034	11,61
335,401	11,64
335,768	11,43
336,135	11,26
336,502	11,24
336,868	11,4
337,235	11,47
337,602	11,62
337,969	11,93
338,335	12,06
338,702	12,18
339,069	12,09
339,435	12,1
339,802	12,01
340,168	12,03
340,535	12,12
340,901	12,13
341,267	12,03
341,634	12,02
342	12,03
342,366	12,19
342,733	12,34
343,099	12,34
343,465	12,37
343,831	12,52
344,197	12,65
344,563	12,55
344,929	12,56
345,295	12,48
345,661	12,37
346,027	12,3
346,393	12,19
346,759	12,25
347,125	12,08
347,491	12,02
347,856	12
348,222	12,01
348,588	11,91
348,953	11,72
349,319	11,57
349,684	11,5
350,05	11,36
350,415	11,31
350,781	11,28
351,146	11,24
351,512	11,17
351,877	11,09
352,242	11,18
352,608	11,17
352,973	11,2
353,338	11,25
353,703	11,32
354,068	11,34
354,433	11,34
354,798	11,46
355,164	11,51
355,528	11,49
355,893	11,51
356,258	11,57
356,623	11,72
356,988	11,75
357,353	11,74
357,718	11,75
358,082	11,77
358,447	11,89
358,812	11,94
359,176	11,99
359,541	12,05
359,905	12,05
360,27	12,04
360,634	12,06
360,999	12,01
361,363	12
361,728	11,96
362,092	11,87
362,456	11,88
362,821	11,82
363,185	11,89
363,549	11,89
363,913	11,96
364,277	12,06
364,641	12,15
365,005	12,26
365,369	12,32
365,733	12,35
366,097	12,32
366,461	12,43
366,825	12,44
367,189	12,45
367,553	12,39
367,916	12,42
368,28	12,46
368,644	12,53
369,007	12,67
369,371	12,83
369,734	13
370,098	13,14
370,461	13,38
370,825	13,46
371,188	13,55
371,552	13,6
371,915	13,58
372,278	13,64
372,642	13,66
373,005	13,73
373,368	13,76
373,731	13,82
374,094	13,86
374,457	13,9
374,82	13,98
375,183	14,15
375,546	14,26
375,909	14,32
376,272	14,38
376,635	14,36
376,998	14,4
377,361	14,43
377,723	14,5
378,086	14,49
378,449	14,52
378,811	14,55
379,174	14,58
379,537	14,63
379,899	14,68
380,262	14,71
380,624	14,73
380,987	14,74
381,349	14,73
381,711	14,78
382,074	14,84
382,436	14,86
382,798	14,89
383,16	14,9
383,522	14,92
383,884	14,92
384,247	14,95
384,609	14,95
384,971	14,99
385,333	14,92
385,695	14,89
386,056	14,89
386,418	14,86
386,78	14,88
387,142	14,88
387,504	14,86
387,865	14,85
388,227	14,86
388,589	14,88
388,95	14,88
389,312	14,84
389,673	14,84
390,035	14,78
390,396	14,8
390,758	14,79
391,119	14,78
391,48	14,78
391,842	14,78
392,203	14,79
392,564	14,79
392,925	14,81
393,286	14,84
393,648	14,83
394,009	14,85
394,37	14,86
394,731	14,91
395,092	14,91
395,452	14,93
395,813	14,93
396,174	14,96
396,535	15,02
396,896	15,05
397,257	15,03
397,617	15,07
397,978	15,06
398,338	15,08
398,699	15,11
399,06	15,12
399,42	15,14
399,781	15,1
400,141	15,1
400,501	15,12
400,862	15,12
401,222	15,14
401,582	15,13
401,943	15,12
402,303	15,06
402,663	15,09
403,023	15,13
403,383	15,15
403,743	15,09
404,103	15,07
404,463	15,05
404,823	15,09
405,183	15,14
405,543	15,19
405,903	15,19
406,262	15,18
406,622	15,18
406,982	15,22
407,342	15,25
407,701	15,24
408,061	15,24
408,42	15,27
408,78	15,32
409,139	15,36
409,499	15,38
409,858	15,43
410,217	15,43
410,577	15,43
410,936	15,44
411,295	15,49
411,655	15,55
412,014	15,61
412,373	15,62
412,732	15,57
413,091	15,48
413,45	15,48
413,809	15,48
414,168	15,44
414,527	15,37
414,886	15,28
415,245	15,27
415,603	15,21
415,962	15,19
416,321	15,11
416,679	15,05
417,038	15,02
417,397	14,98
417,755	14,94
418,114	14,94
418,472	14,93
418,831	14,92
419,189	14,91
419,547	14,89
419,906	14,86
420,264	14,85
420,622	14,86
420,981	14,84
421,339	14,83
421,697	14,85
422,055	14,9
422,413	14,98
422,771	15,01
423,129	15,06
423,487	15,09
423,845	15,16
424,203	15,24
424,56	15,29
424,918	15,37
425,276	15,45
425,634	15,5
425,991	15,56
426,349	15,62
426,707	15,66
427,064	15,73
427,422	15,81
427,779	15,95
428,137	16,05
428,494	16,16
428,851	16,28
429,209	16,36
429,566	16,38
429,923	16,4
430,28	16,42
430,637	16,47
430,995	16,47
431,352	16,45
431,709	16,42
432,066	16,45
432,423	16,45
432,78	16,44
433,137	16,46
433,493	16,48
433,85	16,51
434,207	16,51
434,564	16,52
434,92	16,51
435,277	16,49
435,634	16,5
435,99	16,5
436,347	16,49
436,703	16,49
437,06	16,52
437,416	16,53
437,773	16,56
438,129	16,55
438,485	16,56
438,841	16,61
439,198	16,64
439,554	16,65
439,91	16,67
440,266	16,71
440,622	16,7
440,978	16,72
441,334	16,7
441,69	16,7
442,046	16,67
442,402	16,67
442,758	16,65
443,113	16,63
443,469	16,62
443,825	16,63
444,181	16,64
444,536	16,65
444,892	16,65
445,247	16,68
445,603	16,69
445,958	16,73
446,314	16,75
446,669	16,78
447,025	16,79
447,38	16,8
447,735	16,82
448,09	16,84
448,446	16,87
448,801	16,9
449,156	16,95
449,511	17,01
449,866	17,08
450,221	17,16
450,576	17,27
450,931	17,37
451,286	17,44
451,641	17,53
451,995	17,58
452,35	17,62
452,705	17,66
453,06	17,7
453,414	17,71
453,769	17,73
454,123	17,71
454,478	17,72
454,832	17,72
455,187	17,68
455,541	17,66
455,896	17,62
456,25	17,57
456,604	17,53
456,958	17,49
457,313	17,46
457,667	17,43
458,021	17,39
458,375	17,39
458,729	17,4
459,083	17,4
459,437	17,42
459,791	17,43
460,145	17,42
460,499	17,41
460,852	17,42
461,206	17,44
461,56	17,44
461,914	17,45
462,267	17,47
462,621	17,48
462,974	17,52
463,328	17,55
463,681	17,58
464,035	17,62
464,388	17,67
464,742	17,72
465,095	17,74
465,448	17,72
465,801	17,72
466,155	17,7
466,508	17,69
466,861	17,67
467,214	17,68
467,567	17,68
467,92	17,67
468,273	17,66
468,626	17,64
468,979	17,65
469,332	17,62
469,684	17,61
470,037	17,62
470,39	17,6
470,743	17,61
471,095	17,65
471,448	17,67
471,8	17,66
472,153	17,65
472,505	17,64
472,858	17,69
473,21	17,66
473,562	17,67
473,915	17,69
474,267	17,67
474,619	17,62
474,971	17,61
475,324	17,59
475,676	17,58
476,028	17,55
476,38	17,53
476,732	17,55
477,084	17,53
477,436	17,53
477,787	17,52
478,139	17,52
478,491	17,48
478,843	17,45
479,195	17,42
479,546	17,37
479,898	17,31
480,249	17,2
480,601	17,14
480,952	17,08
481,304	17,02
481,655	16,99
482,007	16,98
482,358	16,96
482,709	16,96
483,061	16,94
483,412	16,92
483,763	16,91
484,114	16,89
484,465	16,87
484,816	16,85
485,167	16,85
485,518	16,84
485,869	16,84
486,22	16,84
486,571	16,85
486,922	16,87
487,272	16,88
487,623	16,9
487,974	16,91
488,324	16,93
488,675	16,96
489,025	16,99
489,376	17,01
489,726	17,03
490,077	17,04
490,427	17,08
490,778	17,12
491,128	17,16
491,478	17,21
491,828	17,27
492,179	17,31
492,529	17,35
492,879	17,38
493,229	17,43
493,579	17,47
493,929	17,5
494,279	17,5
494,629	17,53
494,979	17,58
495,328	17,65
495,678	17,73
496,028	17,81
496,378	17,89
496,727	17,94
497,077	18
497,426	18,07
497,776	18,09
498,125	18,13
498,475	18,13
498,824	18,15
499,174	18,17
499,523	18,25
499,872	18,28
500,221	18,32
500,571	18,34
500,92	18,4
501,269	18,44
501,618	18,49
501,967	18,58
502,316	18,64
502,665	18,73
503,014	18,8
503,363	18,84
503,711	18,87
504,06	18,94
504,409	18,97
504,758	19
505,106	19,06
505,455	19,09
505,803	19,17
506,152	19,21
506,5	19,27
506,849	19,31
507,197	19,36
507,546	19,41
507,894	19,48
508,242	19,52
508,59	19,57
508,939	19,64
509,287	19,67
509,635	19,73
509,983	19,76
510,331	19,81
510,679	19,9
511,027	19,97
511,375	20,03
511,723	20,1
512,07	20,18
512,418	20,28
512,766	20,39
513,114	20,46
513,461	20,58
513,809	20,66
514,156	20,74
514,504	20,84
514,851	20,92
515,199	21,01
515,546	21,09
515,893	21,2
516,241	21,28
516,588	21,33
516,935	21,43
517,282	21,52
517,63	21,65
517,977	21,71
518,324	21,77
518,671	21,86
519,018	21,95
519,365	22,03
519,711	22,09
520,058	22,16
520,405	22,23
520,752	22,31
521,099	22,43
521,445	22,51
521,792	22,61
522,138	22,72
522,485	22,84
522,832	22,96
523,178	23,08
523,524	23,18
523,871	23,3
524,217	23,35
524,563	23,41
524,91	23,44
525,256	23,49
525,602	23,56
525,948	23,62
526,294	23,64
526,64	23,67
526,986	23,7
527,332	23,73
527,678	23,77
528,024	23,8
528,37	23,84
528,716	23,88
529,061	23,92
529,407	23,96
529,753	24,01
530,098	24,04
530,444	24,07
530,789	24,1
531,135	24,14
531,48	24,2
531,826	24,26
532,171	24,35
532,516	24,43
532,862	24,49
533,207	24,55
533,552	24,62
533,897	24,67
534,242	24,73
534,587	24,77
534,932	24,82
535,277	24,85
535,622	24,87
535,967	24,91
536,312	24,96
536,657	24,98
537,001	25,02
537,346	25,06
537,691	25,07
538,035	25,08
538,38	25,05
538,724	25,02
539,069	25
539,413	24,98
539,758	24,99
540,102	25,02
540,446	25,02
540,791	25,04
541,135	25,06
541,479	25,06
541,823	25,06
542,167	25,05
542,512	25,06
542,856	25,06
543,2	25,04
543,543	25,02
543,887	25,06
544,231	25,06
544,575	25,08
544,919	25,14
545,262	25,19
545,606	25,26
545,95	25,32
546,293	25,34
546,637	25,37
546,98	25,4
547,324	25,43
547,667	25,48
548,011	25,47
548,354	25,49
548,697	25,51
549,04	25,51
549,384	25,5
549,727	25,48
550,07	25,5
550,413	25,51
550,756	25,54
551,099	25,52
551,442	25,52
551,785	25,53
552,128	25,51
552,47	25,49
552,813	25,49
553,156	25,48
553,499	25,51
553,841	25,49
554,184	25,47
554,526	25,42
554,869	25,39
555,211	25,38
555,554	25,32
555,896	25,27
556,238	25,25
556,581	25,28
556,923	25,26
557,265	25,18
557,607	25,14
557,949	25,12
558,291	25,08
558,633	25,01
558,975	24,95
559,317	24,9
559,659	24,89
560,001	24,83
560,343	24,75
560,685	24,67
561,026	24,59
561,368	24,53
561,71	24,49
562,051	24,42
562,393	24,38
562,734	24,33
563,076	24,26
563,417	24,19
563,759	24,1
564,1	24,01
564,441	24,02
564,782	23,93
565,124	23,84
565,465	23,76
565,806	23,76
566,147	23,68
566,488	23,64
566,829	23,53
567,17	23,45
567,511	23,38
567,851	23,32
568,192	23,27
568,533	23,19
568,874	23,08
569,214	23,01
569,555	22,93
569,895	22,86
570,236	22,82
570,576	22,75
570,917	22,68
571,257	22,59
571,598	22,49
571,938	22,44
572,278	22,38
572,618	22,28
572,959	22,2
573,299	22,17
573,639	22,08
573,979	22,05
574,319	21,97
574,659	21,92
574,999	21,87
575,339	21,83
575,678	21,8
576,018	21,77
576,358	21,74
576,698	21,63
577,037	21,57
577,377	21,5
577,716	21,43
578,056	21,38
578,395	21,34
578,735	21,29
579,074	21,25
579,413	21,22
579,753	21,19
580,092	21,1
580,431	21,04
580,77	21,01
581,109	20,96
581,448	20,93
581,787	20,9
582,126	20,87
582,465	20,83
582,804	20,78
583,143	20,73
583,482	20,66
583,82	20,68
584,159	20,65
584,498	20,59
584,836	20,58
585,175	20,54
585,514	20,52
585,852	20,52
586,19	20,52
586,529	20,47
586,867	20,51
587,205	20,52
587,544	20,47
587,882	20,45
588,22	20,44
588,558	20,43
588,896	20,41
589,234	20,38
589,572	20,29
589,91	20,28
590,248	20,24
590,586	20,22
590,924	20,2
591,262	20,18
591,599	20,14
591,937	20,13
592,275	20,11
592,612	20,09
592,95	20,04
593,287	20,03
593,625	19,99
593,962	19,93
594,299	19,93
594,637	19,93
594,974	19,91
595,311	19,87
595,648	19,84
595,985	19,82
596,322	19,79
596,659	19,84
596,996	19,82
597,333	19,83
597,67	19,8
598,007	19,75
598,344	19,71
598,681	19,75
599,017	19,72
599,354	19,71
599,691	19,74
600,027	19,71
600,364	19,65
600,7	19,66
601,037	19,67
601,373	19,64
601,71	19,58
602,046	19,53
602,382	19,54
602,718	19,51
603,054	19,48
603,391	19,47
603,727	19,46
604,063	19,43
604,399	19,42
604,735	19,42
605,071	19,43
605,406	19,4
605,742	19,36
606,078	19,31
606,414	19,26
606,749	19,19
607,085	19,18
607,421	19,16
607,756	19,09
608,092	19,03
608,427	18,98
608,762	18,95
609,098	18,95
609,433	18,89
609,768	18,9
610,104	18,88
610,439	18,85
610,774	18,81
611,109	18,77
611,444	18,71
611,779	18,7
612,114	18,68
612,449	18,68
612,784	18,64
613,118	18,62
613,453	18,6
613,788	18,53
614,123	18,45
614,457	18,42
614,792	18,38
615,126	18,36
615,461	18,29
615,795	18,26
616,13	18,2
616,464	18,15
616,798	18,08
617,132	18,04
617,467	18,01
617,801	17,91
618,135	17,87
618,469	17,87
618,803	17,82
619,137	17,83
619,471	17,81
619,805	17,76
620,139	17,77
620,472	17,76
620,806	17,8
621,14	17,79
621,473	17,76
621,807	17,75
622,141	17,75
622,474	17,74
622,808	17,72
623,141	17,73
623,474	17,71
623,808	17,74
624,141	17,7
624,474	17,7
624,807	17,72
625,141	17,72
625,474	17,69
625,807	17,65
626,14	17,58
626,473	17,57
626,806	17,59
627,138	17,57
627,471	17,52
627,804	17,47
628,137	17,46
628,469	17,48
628,802	17,47
629,135	17,44
629,467	17,49
629,8	17,51
630,132	17,48
630,465	17,48
630,797	17,43
631,129	17,44
631,461	17,43
631,794	17,49
632,126	17,46
632,458	17,42
632,79	17,45
633,122	17,44
633,454	17,44
633,786	17,42
634,118	17,36
634,45	17,39
634,781	17,38
635,113	17,32
635,445	17,29
635,777	17,27
636,108	17,2
636,44	17,13
636,771	17,08
637,103	17,07
637,434	17,04
637,765	16,98
638,097	16,93
638,428	16,88
638,759	16,82
639,09	16,85
639,422	16,84
639,753	16,79
640,084	16,75
640,415	16,68
640,746	16,65
641,077	16,66
641,407	16,62
641,738	16,56
642,069	16,53
642,4	16,43
642,73	16,38
643,061	16,38
643,392	16,37
643,722	16,34
644,053	16,27
644,383	16,29
644,713	16,26
645,044	16,22
645,374	16,15
645,704	16,04
646,034	15,93
646,365	15,93
646,695	15,87
647,025	15,83
647,355	15,74
647,685	15,73
