Data from palm_cartel_d_45_90_Reflection_00005.txt Node
Date: Fri Feb 11 15:10:12 ART 2022
User: Nati
Spectrometer: USB2E3644
Trigger mode: 4
Integration Time (sec): 3,520000E-1
Scans to average: 10
Electric dark correction enabled: true
Nonlinearity correction enabled: false
Boxcar width: 10
XAxis mode: Wavelengths
Number of Pixels in Spectrum: 2048
>>>>>Begin Spectral Data<<<<<
178,315	-121,12
178,696	-75
179,076	-46,33
179,457	-81,94
179,838	-41,58
180,218	-1,07
180,599	-7,79
180,979	5,13
181,36	150
181,74	14,72
182,121	-45,28
182,501	5,66
182,881	-30
183,262	300
183,642	-120
184,022	124,14
184,402	184,62
184,783	216,46
185,163	426,92
185,543	330,38
185,923	344,32
186,303	293,81
186,683	263,48
187,063	224,5
187,443	162,61
187,823	142,5
188,203	124,37
188,583	110,82
188,963	105,75
189,343	115,55
189,723	99,78
190,102	88,84
190,482	86,69
190,862	85,32
191,242	79,35
191,621	70,5
192,001	70,27
192,38	70,45
192,76	70,98
193,14	71,04
193,519	71,52
193,898	69,76
194,278	70,25
194,657	68,48
195,037	66,88
195,416	72,6
195,795	69,75
196,175	61,3
196,554	55,52
196,933	52,11
197,312	47,51
197,692	47,07
198,071	47,54
198,45	49,93
198,829	50,4
199,208	50,18
199,587	47,91
199,966	45
200,345	39,57
200,724	38,6
201,103	35,92
201,482	32,01
201,86	28,09
202,239	29,87
202,618	30,6
202,997	40,31
203,375	44,14
203,754	42,56
204,133	36,83
204,511	38,42
204,89	44,33
205,269	51,75
205,647	58,6
206,026	60,64
206,404	55,67
206,782	61,72
207,161	60
207,539	68,9
207,918	80,59
208,296	78,03
208,674	73,6
209,052	74,55
209,431	83,66
209,809	80,74
210,187	70,54
210,565	67,27
210,943	58,58
211,321	60,45
211,699	65,19
212,077	72,93
212,455	78,47
212,833	81,07
213,211	76,32
213,589	83,69
213,967	91,28
214,345	96,15
214,722	87,02
215,1	97,92
215,478	98,04
215,855	93,07
216,233	93,25
216,611	99,39
216,988	106,09
217,366	106,66
217,743	110,8
218,121	112,98
218,498	112,91
218,876	106,92
219,253	103,06
219,631	106,44
220,008	107,5
220,385	103
220,762	102,56
221,14	102,02
221,517	95,68
221,894	86,98
222,271	83,1
222,648	85,1
223,025	80,12
223,402	80,21
223,78	76,85
224,157	76,46
224,533	71,97
224,91	62,76
225,287	54,23
225,664	52,47
226,041	53,07
226,418	49
226,795	56,11
227,171	57,8
227,548	58,32
227,925	59,34
228,301	59,03
228,678	55,09
229,055	57,64
229,431	60,22
229,808	62,74
230,184	62,51
230,561	58,51
230,937	56,85
231,313	51,23
231,69	46,96
232,066	45,62
232,442	44,35
232,819	42,59
233,195	40,79
233,571	35,61
233,947	34,97
234,323	33,83
234,699	27,78
235,075	27,88
235,451	24,56
235,827	21,91
236,203	17,23
236,579	18,58
236,955	14,97
237,331	6,83
237,707	2,72
238,083	2,37
238,459	4,68
238,834	8,61
239,21	12,91
239,586	15,14
239,961	14,79
240,337	17,57
240,713	19,33
241,088	19,38
241,464	20,96
241,839	21,99
242,215	22,03
242,59	21,82
242,965	20,22
243,341	19,37
243,716	18,48
244,091	18,65
244,467	17,47
244,842	17,21
245,217	17,94
245,592	18,13
245,967	18,05
246,343	18,21
246,718	18,77
247,093	19,01
247,468	19,41
247,843	19,13
248,218	18,12
248,593	17,81
248,967	16,85
249,342	16,62
249,717	16,26
250,092	16,36
250,467	16,69
250,841	17,69
251,216	18,21
251,591	17,63
251,965	18,35
252,34	19,71
252,714	19,87
253,089	20,71
253,463	21,64
253,838	22,18
254,212	21,4
254,587	18,93
254,961	18,08
255,335	18,06
255,71	18,15
256,084	17,57
256,458	17,26
256,832	18,11
257,206	18,27
257,581	18,36
257,955	18,22
258,329	17,39
258,703	16,41
259,077	16,35
259,451	17
259,825	16,92
260,199	16,57
260,572	16,33
260,946	16,21
261,32	16,05
261,694	15,8
262,068	16,24
262,441	17
262,815	17,08
263,189	17,36
263,562	17,52
263,936	17,76
264,309	18,27
264,683	18,43
265,056	18,47
265,43	18,22
265,803	17,46
266,176	17,96
266,55	18,49
266,923	18,37
267,296	18,43
267,67	17,94
268,043	17,68
268,416	17,45
268,789	17,13
269,162	16,95
269,535	16,54
269,908	16,03
270,281	15,78
270,654	15,85
271,027	15,48
271,4	15,31
271,773	15,4
272,146	15
272,519	15,18
272,891	14,99
273,264	14,83
273,637	14,94
274,01	14,55
274,382	14,63
274,755	14,79
275,127	14,79
275,5	15,3
275,872	15,62
276,245	15,94
276,617	16,21
276,99	16,37
277,362	17,04
277,734	17,22
278,107	17,32
278,479	16,95
278,851	16,79
279,223	16,6
279,596	16,28
279,968	16,37
280,34	16
280,712	15,91
281,084	16,09
281,456	16,45
281,828	16,74
282,2	16,89
282,572	16,99
282,944	16,79
283,315	16,46
283,687	16,22
284,059	16,03
284,431	15,73
284,802	15,54
285,174	14,96
285,546	14,78
285,917	14,79
286,289	15
286,66	14,88
287,032	15,04
287,403	15,17
287,775	15,01
288,146	14,85
288,518	14,9
288,889	15,03
289,26	15,19
289,632	15,32
290,003	15,02
290,374	14,81
290,745	14,66
291,116	14,63
291,487	14,47
291,858	14,69
292,229	15,13
292,6	15,48
292,971	15,82
293,342	15,8
293,713	15,52
294,084	15,32
294,455	15,34
294,826	15,49
295,196	15,55
295,567	15,69
295,938	16,12
296,308	16,2
296,679	15,89
297,05	15,59
297,42	15,5
297,791	15,68
298,161	15,6
298,532	15,52
298,902	15,41
299,272	15,41
299,643	15,54
300,013	15,16
300,383	14,78
300,754	14,67
301,124	14,62
301,494	14,67
301,864	14,86
302,234	14,92
302,604	14,42
302,974	14,38
303,344	14,3
303,714	13,83
304,084	13,56
304,454	13,39
304,824	13,58
305,194	13,49
305,563	13,28
305,933	13,27
306,303	13,31
306,673	13,26
307,042	13,35
307,412	13,06
307,781	13,17
308,151	13,23
308,521	13,14
308,89	13,07
309,259	12,96
309,629	12,91
309,998	12,9
310,368	12,86
310,737	12,7
311,106	12,59
311,475	12,68
311,845	12,75
312,214	13,16
312,583	13,12
312,952	13,18
313,321	13,35
313,69	13,34
314,059	13,54
314,428	13,79
314,797	14,09
315,166	14,44
315,535	14,36
315,904	14,36
316,272	14,31
316,641	14,58
317,01	14,61
317,379	14,38
317,747	14,2
318,116	14,54
318,484	14,68
318,853	14,69
319,221	14,62
319,59	14,49
319,958	14,29
320,327	14,18
320,695	14,14
321,063	13,83
321,432	13,71
321,8	13,5
322,168	13,21
322,536	12,94
322,905	12,65
323,273	12,78
323,641	12,89
324,009	13,08
324,377	13,1
324,745	13,21
325,113	13,14
325,481	13,2
325,849	13
326,216	13,04
326,584	13,07
326,952	13,1
327,32	13,11
327,687	13,01
328,055	12,86
328,423	12,69
328,79	12,66
329,158	12,76
329,525	12,7
329,893	12,74
330,26	12,92
330,628	12,86
330,995	12,76
331,362	12,58
331,73	12,57
332,097	12,42
332,464	12,37
332,831	12,52
333,199	12,43
333,566	12,47
333,933	12,34
334,3	12,26
334,667	12,19
335,034	12,15
335,401	12,05
335,768	12,1
336,135	12,2
336,502	12,18
336,868	12,1
337,235	12,06
337,602	11,99
337,969	11,69
338,335	11,65
338,702	11,61
339,069	11,71
339,435	11,72
339,802	11,74
340,168	11,61
340,535	11,59
340,901	11,57
341,267	11,46
341,634	11,28
342	11,14
342,366	11,09
342,733	11,05
343,099	11,06
343,465	11,04
343,831	10,99
344,197	11
344,563	10,95
344,929	10,92
345,295	10,99
345,661	11,05
346,027	11,11
346,393	11,04
346,759	10,93
347,125	10,85
347,491	10,75
347,856	10,89
348,222	10,84
348,588	10,81
348,953	10,85
349,319	10,93
349,684	10,91
350,05	10,95
350,415	10,94
350,781	10,95
351,146	10,98
351,512	10,95
351,877	10,9
352,242	10,91
352,608	10,93
352,973	10,91
353,338	10,87
353,703	10,73
354,068	10,75
354,433	10,71
354,798	10,64
355,164	10,69
355,528	10,63
355,893	10,56
356,258	10,51
356,623	10,51
356,988	10,53
357,353	10,6
357,718	10,55
358,082	10,58
358,447	10,6
358,812	10,59
359,176	10,64
359,541	10,65
359,905	10,68
360,27	10,7
360,634	10,67
360,999	10,62
361,363	10,64
361,728	10,62
362,092	10,61
362,456	10,58
362,821	10,53
363,185	10,43
363,549	10,39
363,913	10,46
364,277	10,46
364,641	10,44
365,005	10,37
365,369	10,36
365,733	10,33
366,097	10,32
366,461	10,32
366,825	10,27
367,189	10,24
367,553	10,18
367,916	10,13
368,28	10,1
368,644	10,11
369,007	10,11
369,371	10,07
369,734	10,05
370,098	10,08
370,461	10,08
370,825	10,11
371,188	10,1
371,552	10,02
371,915	9,93
372,278	9,88
372,642	9,95
373,005	9,91
373,368	9,89
373,731	9,86
374,094	9,81
374,457	9,73
374,82	9,7
375,183	9,68
375,546	9,67
375,909	9,67
376,272	9,67
376,635	9,66
376,998	9,69
377,361	9,74
377,723	9,74
378,086	9,73
378,449	9,75
378,811	9,85
379,174	9,88
379,537	9,88
379,899	9,93
380,262	9,92
380,624	9,94
380,987	9,95
381,349	9,92
381,711	9,95
382,074	9,97
382,436	10
382,798	10,56
383,16	10,49
383,522	10,46
383,884	10,45
384,247	10,48
384,609	10,48
384,971	10,46
385,333	10,42
385,695	10,4
386,056	10,37
386,418	10,28
386,78	10,31
387,142	10,25
387,504	10,17
387,865	10,11
388,227	10,1
388,589	10,12
388,95	10,08
389,312	10,06
389,673	10,11
390,035	10,04
390,396	9,58
390,758	9,61
391,119	9,61
391,48	9,56
391,842	9,51
392,203	9,5
392,564	9,49
392,925	9,48
393,286	9,47
393,648	9,47
394,009	9,48
394,37	9,47
394,731	9,51
395,092	9,5
395,452	9,51
395,813	9,51
396,174	9,46
396,535	9,51
396,896	9,49
397,257	9,44
397,617	9,45
397,978	9,51
398,338	9,49
398,699	9,5
399,06	9,58
399,42	9,56
399,781	9,53
400,141	9,5
400,501	9,52
400,862	9,54
401,222	9,49
401,582	9,49
401,943	9,47
402,303	9,45
402,663	9,45
403,023	9,45
403,383	9,45
403,743	9,47
404,103	9,46
404,463	9,48
404,823	9,52
405,183	9,54
405,543	9,5
405,903	9,52
406,262	9,53
406,622	9,48
406,982	9,5
407,342	9,53
407,701	9,55
408,061	9,53
408,42	9,51
408,78	9,53
409,139	9,52
409,499	9,52
409,858	9,56
410,217	9,58
410,577	9,58
410,936	9,58
411,295	9,59
411,655	9,61
412,014	9,64
412,373	9,6
412,732	9,57
413,091	9,58
413,45	9,6
413,809	9,59
414,168	9,6
414,527	9,56
414,886	9,56
415,245	9,58
415,603	9,6
415,962	9,62
416,321	9,62
416,679	9,64
417,038	9,65
417,397	9,64
417,755	9,63
418,114	9,63
418,472	9,63
418,831	9,63
419,189	9,61
419,547	9,61
419,906	9,62
420,264	9,63
420,622	9,65
420,981	9,64
421,339	9,67
421,697	9,68
422,055	9,72
422,413	9,73
422,771	9,73
423,129	9,75
423,487	9,77
423,845	9,79
424,203	9,79
424,56	9,81
424,918	9,85
425,276	9,9
425,634	9,95
425,991	9,97
426,349	9,99
426,707	10,05
427,064	10,05
427,422	10,08
427,779	10,14
428,137	10,16
428,494	10,23
428,851	10,28
429,209	10,33
429,566	10,37
429,923	10,4
430,28	10,46
430,637	10,51
430,995	10,53
431,352	10,54
431,709	10,57
432,066	10,6
432,423	10,61
432,78	10,62
433,137	10,65
433,493	10,67
433,85	10,75
434,207	10,71
434,564	10,77
434,92	10,8
435,277	10,84
435,634	10,87
435,99	10,91
436,347	10,94
436,703	10,98
437,06	11,01
437,416	11,07
437,773	11,07
438,129	11,09
438,485	11,16
438,841	11,19
439,198	11,22
439,554	11,23
439,91	11,26
440,266	11,29
440,622	11,33
440,978	11,36
441,334	11,36
441,69	11,42
442,046	11,43
442,402	11,47
442,758	11,48
443,113	11,51
443,469	11,54
443,825	11,56
444,181	11,57
444,536	11,62
444,892	11,64
445,247	11,68
445,603	11,69
445,958	11,69
446,314	11,72
446,669	11,75
447,025	11,78
447,38	11,82
447,735	11,85
448,09	11,86
448,446	11,88
448,801	11,91
449,156	11,94
449,511	11,97
449,866	12,02
450,221	12,06
450,576	12,1
450,931	12,13
451,286	12,18
451,641	12,22
451,995	12,24
452,35	12,29
452,705	12,3
453,06	12,36
453,414	12,39
453,769	12,42
454,123	12,42
454,478	12,42
454,832	12,43
455,187	12,43
455,541	12,47
455,896	12,46
456,25	12,49
456,604	12,52
456,958	12,55
457,313	12,55
457,667	12,58
458,021	12,59
458,375	12,62
458,729	12,62
459,083	12,64
459,437	12,66
459,791	12,65
460,145	12,67
460,499	12,68
460,852	12,7
461,206	12,72
461,56	12,75
461,914	12,78
462,267	12,77
462,621	12,8
462,974	12,8
463,328	12,85
463,681	12,84
464,035	12,87
464,388	12,9
464,742	12,9
465,095	12,92
465,448	12,94
465,801	12,94
466,155	12,96
466,508	12,98
466,861	12,96
467,214	12,98
467,567	12,99
467,92	13,01
468,273	12,99
468,626	12,99
468,979	13,01
469,332	13,03
469,684	13,04
470,037	13,05
470,39	13,06
470,743	13,08
471,095	13,08
471,448	13,08
471,8	13,07
472,153	13,08
472,505	13,04
472,858	13,03
473,21	13,03
473,562	13,02
473,915	13,02
474,267	13,04
474,619	13,05
474,971	13,03
475,324	13,02
475,676	13,06
476,028	13,02
476,38	13,02
476,732	12,99
477,084	12,99
477,436	12,98
477,787	12,96
478,139	12,95
478,491	12,97
478,843	12,94
479,195	12,94
479,546	12,92
479,898	12,94
480,249	12,96
480,601	12,98
480,952	13
481,304	13,01
481,655	13,01
482,007	12,98
482,358	13
482,709	13
483,061	12,98
483,412	12,98
483,763	12,98
484,114	12,99
484,465	12,99
484,816	13
485,167	13,01
485,518	13,01
485,869	13,02
486,22	13,03
486,571	13,04
486,922	13,05
487,272	13,06
487,623	13,06
487,974	13,06
488,324	13,06
488,675	13,07
489,025	13,08
489,376	13,11
489,726	13,11
490,077	13,12
490,427	13,14
490,778	13,16
491,128	13,19
491,478	13,21
491,828	13,23
492,179	13,25
492,529	13,27
492,879	13,31
493,229	13,33
493,579	13,37
493,929	13,39
494,279	13,41
494,629	13,45
494,979	13,51
495,328	13,55
495,678	13,59
496,028	13,65
496,378	13,73
496,727	13,79
497,077	13,84
497,426	13,9
497,776	13,94
498,125	13,99
498,475	14,02
498,824	14,07
499,174	14,11
499,523	14,17
499,872	14,21
500,221	14,27
500,571	14,32
500,92	14,37
501,269	14,46
501,618	14,55
501,967	14,61
502,316	14,66
502,665	14,72
503,014	14,79
503,363	14,87
503,711	14,91
504,06	14,97
504,409	15,06
504,758	15,11
505,106	15,21
505,455	15,28
505,803	15,37
506,152	15,44
506,5	15,53
506,849	15,61
507,197	15,68
507,546	15,75
507,894	15,83
508,242	15,92
508,59	15,98
508,939	16,02
509,287	16,12
509,635	16,19
509,983	16,27
510,331	16,36
510,679	16,43
511,027	16,52
511,375	16,62
511,723	16,71
512,07	16,8
512,418	16,91
512,766	17
513,114	17,1
513,461	17,21
513,809	17,32
514,156	17,42
514,504	17,54
514,851	17,65
515,199	17,78
515,546	17,9
515,893	18,01
516,241	18,16
516,588	18,25
516,935	18,39
517,282	18,49
517,63	18,59
517,977	18,72
518,324	18,82
518,671	18,9
519,018	19
519,365	19,08
519,711	19,18
520,058	19,27
520,405	19,35
520,752	19,44
521,099	19,56
521,445	19,68
521,792	19,81
522,138	19,95
522,485	20,07
522,832	20,21
523,178	20,33
523,524	20,43
523,871	20,55
524,217	20,68
524,563	20,81
524,91	20,94
525,256	21,08
525,602	21,22
525,948	21,33
526,294	21,43
526,64	21,49
526,986	21,53
527,332	21,58
527,678	21,63
528,024	21,67
528,37	21,73
528,716	21,76
529,061	21,81
529,407	21,87
529,753	21,94
530,098	22
530,444	22,08
530,789	22,13
531,135	22,17
531,48	22,2
531,826	22,25
532,171	22,32
532,516	22,38
532,862	22,44
533,207	22,49
533,552	22,52
533,897	22,6
534,242	22,65
534,587	22,71
534,932	22,78
535,277	22,82
535,622	22,84
535,967	22,89
536,312	22,93
536,657	22,97
537,001	23,01
537,346	23,07
537,691	23,13
538,035	23,18
538,38	23,23
538,724	23,26
539,069	23,28
539,413	23,3
539,758	23,32
540,102	23,33
540,446	23,38
540,791	23,42
541,135	23,45
541,479	23,48
541,823	23,52
542,167	23,52
542,512	23,56
542,856	23,56
543,2	23,57
543,543	23,59
543,887	23,61
544,231	23,63
544,575	23,63
544,919	23,64
545,262	23,67
545,606	23,7
545,95	23,71
546,293	23,73
546,637	23,75
546,98	23,81
547,324	23,83
547,667	23,85
548,011	23,85
548,354	23,86
548,697	23,86
549,04	23,85
549,384	23,86
549,727	23,84
550,07	23,88
550,413	23,91
550,756	23,92
551,099	23,94
551,442	23,96
551,785	24,01
552,128	24,02
552,47	24,03
552,813	24,06
553,156	24,09
553,499	24,12
553,841	24,12
554,184	24,1
554,526	24,08
554,869	24,05
555,211	24,06
555,554	24,06
555,896	24,07
556,238	24,06
556,581	24,04
556,923	24,02
557,265	24
557,607	23,97
557,949	23,96
558,291	23,93
558,633	23,87
558,975	23,83
559,317	23,8
559,659	23,78
560,001	23,7
560,343	23,67
560,685	23,64
561,026	23,57
561,368	23,55
561,71	23,51
562,051	23,48
562,393	23,46
562,734	23,38
563,076	23,33
563,417	23,28
563,759	23,24
564,1	23,19
564,441	23,16
564,782	23,13
565,124	23,08
565,465	23,03
565,806	23,01
566,147	22,96
566,488	22,92
566,829	22,87
567,17	22,85
567,511	22,78
567,851	22,74
568,192	22,69
568,533	22,6
568,874	22,57
569,214	22,51
569,555	22,42
569,895	22,37
570,236	22,32
570,576	22,24
570,917	22,19
571,257	22,13
571,598	22,07
571,938	22
572,278	21,95
572,618	21,91
572,959	21,84
573,299	21,78
573,639	21,72
573,979	21,68
574,319	21,64
574,659	21,62
574,999	21,56
575,339	21,49
575,678	21,46
576,018	21,41
576,358	21,36
576,698	21,32
577,037	21,3
577,377	21,21
577,716	21,18
578,056	21,16
578,395	21,13
578,735	21,08
579,074	21,01
579,413	20,95
579,753	20,91
580,092	20,86
580,431	20,82
580,77	20,79
581,109	20,72
581,448	20,65
581,787	20,6
582,126	20,58
582,465	20,57
582,804	20,52
583,143	20,52
583,482	20,44
583,82	20,39
584,159	20,36
584,498	20,34
584,836	20,32
585,175	20,25
585,514	20,18
585,852	20,15
586,19	20,14
586,529	20,09
586,867	20,02
587,205	19,99
587,544	19,99
587,882	19,95
588,22	19,89
588,558	19,89
588,896	19,86
589,234	19,82
589,572	19,79
589,91	19,82
590,248	19,75
590,586	19,75
590,924	19,75
591,262	19,74
591,599	19,7
591,937	19,69
592,275	19,66
592,612	19,66
592,95	19,63
593,287	19,62
593,625	19,6
593,962	19,59
594,299	19,57
594,637	19,53
594,974	19,55
595,311	19,58
595,648	19,54
595,985	19,51
596,322	19,51
596,659	19,55
596,996	19,52
597,333	19,47
597,67	19,47
598,007	19,45
598,344	19,42
598,681	19,49
599,017	19,45
599,354	19,45
599,691	19,41
600,027	19,44
600,364	19,41
600,7	19,42
601,037	19,39
601,373	19,38
601,71	19,33
602,046	19,31
602,382	19,27
602,718	19,25
603,054	19,23
603,391	19,2
603,727	19,15
604,063	19,15
604,399	19,13
604,735	19,12
605,071	19,1
605,406	19,09
605,742	19,04
606,078	19,05
606,414	18,99
606,749	18,95
607,085	18,88
607,421	18,84
607,756	18,79
608,092	18,76
608,427	18,72
608,762	18,69
609,098	18,64
609,433	18,59
609,768	18,56
610,104	18,55
610,439	18,51
610,774	18,5
611,109	18,41
611,444	18,4
611,779	18,36
612,114	18,33
612,449	18,28
612,784	18,22
613,118	18,15
613,453	18,18
613,788	18,15
614,123	18,13
614,457	18,11
614,792	18,11
615,126	18,05
615,461	18
615,795	17,98
616,13	17,94
616,464	17,91
616,798	17,89
617,132	17,83
617,467	17,79
617,801	17,7
618,135	17,73
618,469	17,69
618,803	17,65
619,137	17,61
619,471	17,56
619,805	17,51
620,139	17,45
620,472	17,4
620,806	17,38
621,14	17,33
621,473	17,29
621,807	17,23
622,141	17,29
622,474	17,24
622,808	17,26
623,141	17,2
623,474	17,17
623,808	17,11
624,141	17,08
624,474	17,12
624,807	17,09
625,141	17,06
625,474	17,06
625,807	17,03
626,14	17,04
626,473	17,01
626,806	17,04
627,138	17,05
627,471	17,02
627,804	17,03
628,137	17,09
628,469	17,04
628,802	17,07
629,135	17,01
629,467	17,03
629,8	17,01
630,132	17
630,465	17,04
630,797	17,09
631,129	17,08
631,461	17,04
631,794	17,13
632,126	17,03
632,458	17
632,79	17,01
633,122	16,99
633,454	17,02
633,786	16,97
634,118	16,96
634,45	17,01
634,781	16,99
635,113	16,93
635,445	16,9
635,777	16,86
636,108	16,85
636,44	16,84
636,771	16,82
637,103	16,79
637,434	16,74
637,765	16,69
638,097	16,78
638,428	16,7
638,759	16,6
639,09	16,61
639,422	16,6
639,753	16,56
640,084	16,52
640,415	16,49
640,746	16,53
641,077	16,45
641,407	16,36
641,738	16,34
642,069	16,28
642,4	16,25
642,73	16,24
643,061	16,21
643,392	16,18
643,722	16,11
644,053	16,1
644,383	16,09
644,713	16,04
645,044	15,89
645,374	15,88
645,704	15,87
646,034	15,87
646,365	15,83
646,695	15,83
647,025	15,82
647,355	15,73
647,685	15,63
648,015	15,63
648,344	15,6
648,674	15,55
649,004	15,52
649,334	15,54
649,663	15,49
649,993	15,46
650,323	15,41
650,652	15,36
650,982	15,33
651,311	15,26
651,64	15,25
651,97	15,19
652,299	15,17
652,628	15,11
652,958	15,08
653,287	15,13
653,616	14,99
653,945	14,92
654,274	14,93
