Data from palm_tumJ_v_Reflection_00003.txt Node
Date: Fri Feb 11 16:14:54 ART 2022
User: Nati
Spectrometer: USB2E3644
Trigger mode: 4
Integration Time (sec): 4,100000E-2
Scans to average: 10
Electric dark correction enabled: true
Nonlinearity correction enabled: false
Boxcar width: 10
XAxis mode: Wavelengths
Number of Pixels in Spectrum: 2048
>>>>>Begin Spectral Data<<<<<
178,315	118,86
178,696	152,08
179,076	168,46
179,457	103,42
179,838	90,06
180,218	53,78
180,599	39,04
180,979	120
181,36	92,26
181,74	92,26
182,121	78,85
182,501	82,38
182,881	87,33
183,262	96,97
183,642	110,81
184,022	120,05
184,402	117,88
184,783	109,06
185,163	105,78
185,543	109,49
185,923	111,89
186,303	108,69
186,683	107,84
187,063	110,59
187,443	108,46
187,823	105,19
188,203	101,96
188,583	100,26
188,963	100,25
189,343	98,17
189,723	98,81
190,102	100,23
190,482	102,15
190,862	102,56
191,242	102,75
191,621	101,66
192,001	102,59
192,38	102,57
192,76	106,15
193,14	110,24
193,519	111,92
193,898	110,69
194,278	110,51
194,657	111,8
195,037	110,37
195,416	109,03
195,795	109,23
196,175	110,54
196,554	111,71
196,933	112,2
197,312	115,44
197,692	116,58
198,071	118,19
198,45	118,49
198,829	120,37
199,208	121,72
199,587	121,98
199,966	120,53
200,345	119,65
200,724	120,2
201,103	121,82
201,482	123,51
201,86	125,41
202,239	125,9
202,618	126,85
202,997	126,46
203,375	126,97
203,754	128,1
204,133	126,63
204,511	129,37
204,89	133,77
205,269	133,01
205,647	132,19
206,026	129,79
206,404	128,89
206,782	127,64
207,161	127,59
207,539	127,77
207,918	125,36
208,296	120,49
208,674	115,97
209,052	112,68
209,431	111,68
209,809	109,31
210,187	109,65
210,565	108,62
210,943	110,45
211,321	110,45
211,699	111,04
212,077	113,99
212,455	113,5
212,833	112,65
213,211	111,59
213,589	111,69
213,967	111,69
214,345	108,69
214,722	106,08
215,1	104,54
215,478	106,32
215,855	110,46
216,233	118,54
216,611	125,84
216,988	131,13
217,366	131,66
217,743	135,52
218,121	139,04
218,498	141,85
218,876	142,84
219,253	147,41
219,631	155,49
220,008	153,61
220,385	149,69
220,762	147,87
221,14	152,56
221,517	153,23
221,894	155,4
222,271	161,1
222,648	169,62
223,025	175,26
223,402	172,45
223,78	166,51
224,157	162,94
224,533	157,36
224,91	154,64
225,287	152,29
225,664	148,55
226,041	145
226,418	142,44
226,795	140,79
227,171	142,85
227,548	144,54
227,925	143,94
228,301	146,16
228,678	152,62
229,055	155,36
229,431	157,33
229,808	160,02
230,184	161,81
230,561	164,97
230,937	162,08
231,313	159,78
231,69	158,34
232,066	157,11
232,442	157,18
232,819	155,07
233,195	162,62
233,571	176,72
233,947	181,51
234,323	185,05
234,699	184,82
235,075	179,88
235,451	177,72
235,827	185,96
236,203	193,28
236,579	193,2
236,955	189,48
237,331	204,22
237,707	233,14
238,083	261,03
238,459	286,52
238,834	353,35
239,21	452,7
239,586	631,73
239,961	1012,89
240,337	1575,11
240,713	2221,38
241,088	1943,17
241,464	2151,52
241,839	-3701,08
242,215	-964,64
242,59	-548,44
242,965	-305,08
243,341	-199,16
243,716	-151,78
244,091	-112,31
244,467	-88,73
244,842	-78,45
245,217	-74,12
245,592	-72,49
245,967	-71,52
246,343	-72,81
246,718	-73,58
247,093	-73,12
247,468	-74,23
247,843	-70,89
248,218	-64,97
248,593	-57,34
248,967	-52,99
249,342	-50,75
249,717	-53,88
250,092	-57,01
250,467	-57,56
250,841	-62,85
251,216	-68,44
251,591	-77,11
251,965	-90,04
252,34	-106,28
252,714	-124
253,089	-141,82
253,463	-143,82
253,838	-138,9
254,212	-126,42
254,587	-122,59
254,961	-118,87
255,335	-103,21
255,71	-88,1
256,084	-68,47
256,458	-55
256,832	-44,66
257,206	-38,3
257,581	-34,41
257,955	-33,24
258,329	-32,45
258,703	-30,5
259,077	-30,42
259,451	-30,4
259,825	-30,49
260,199	-28,96
260,572	-27,31
260,946	-25,52
261,32	-24,02
261,694	-23,54
262,068	-23,86
262,441	-22,98
262,815	-22,88
263,189	-23,04
263,562	-22,83
263,936	-25,06
264,309	-28,63
264,683	-33,39
265,056	-36,6
265,43	-37,15
265,803	-36,04
266,176	-34,17
266,55	-33,52
266,923	-32,17
267,296	-29,41
267,67	-28,9
268,043	-29,35
268,416	-28,76
268,789	-27,73
269,162	-27,52
269,535	-25,15
269,908	-22,92
270,281	-22,16
270,654	-21,42
271,027	-20,53
271,4	-21,02
271,773	-21,52
272,146	-20,88
272,519	-19,82
272,891	-19,1
273,264	-18,65
273,637	-18,7
274,01	-19,65
274,382	-20,05
274,755	-19,77
275,127	-19,88
275,5	-18,59
275,872	-16,98
276,245	-15,82
276,617	-15,48
276,99	-14,85
277,362	-15,68
277,734	-16,41
278,107	-16,45
278,479	-16,39
278,851	-15,88
279,223	-15,26
279,596	-14,95
279,968	-14,32
280,34	-14,33
280,712	-13,82
281,084	-12,92
281,456	-11,31
281,828	-9,5
282,2	-7,77
282,572	-7,11
282,944	-6,53
283,315	-6,28
283,687	-6,28
284,059	-6,34
284,431	-6,13
284,802	-5,75
285,174	-4,97
285,546	-4,23
285,917	-3,92
286,289	-3,44
286,66	-3,43
287,032	-3,35
287,403	-2,63
287,775	-2,22
288,146	-1,59
288,518	-1,3
288,889	-1,34
289,26	-1,5
289,632	-1,74
290,003	-2,08
290,374	-1,95
290,745	-2,25
291,116	-2,72
291,487	-2,83
291,858	-2,44
292,229	-2,8
292,6	-3,12
292,971	-3,44
293,342	-3,82
293,713	-3,56
294,084	-3,03
294,455	-2,43
294,826	-1,95
295,196	-1,84
295,567	-2,01
295,938	-2,34
296,308	-2,59
296,679	-2,05
297,05	-1,97
297,42	-2,19
297,791	-2,44
298,161	-2,6
298,532	-2,65
298,902	-2,63
299,272	-2,71
299,643	-2,98
300,013	-2,64
300,383	-2,82
300,754	-2,73
301,124	-2,51
301,494	-2,92
301,864	-3,24
302,234	-3,61
302,604	-3,59
302,974	-3,67
303,344	-3,45
303,714	-2,92
304,084	-2,63
304,454	-3,11
304,824	-3,22
305,194	-3,16
305,563	-3
305,933	-2,87
306,303	-2,58
306,673	-2,3
307,042	-1,87
307,412	-1,54
307,781	-1,4
308,151	-0,78
308,521	-0,66
308,89	-0,71
309,259	-0,55
309,629	-0,22
309,998	0,12
310,368	-0,05
310,737	-0,01
311,106	-0,24
311,475	-0,4
311,845	-0,74
312,214	-0,68
312,583	-0,05
312,952	0,31
313,321	0,31
313,69	0,3
314,059	0,46
314,428	0,61
314,797	0,39
315,166	0,44
315,535	0,64
315,904	0,3
316,272	0,33
316,641	0,29
317,01	0,35
317,379	0,11
317,747	-0,26
318,116	-0,05
318,484	0,42
318,853	1,11
319,221	1,45
319,59	2,13
319,958	2,27
320,327	2,18
320,695	2,24
321,063	2,43
321,432	2,5
321,8	2,44
322,168	2,59
322,536	2,62
322,905	2,59
323,273	2,69
323,641	3,08
324,009	3,03
324,377	3,2
324,745	3,36
325,113	3,45
325,481	3,63
325,849	3,54
326,216	3,19
326,584	3,08
326,952	2,89
327,32	2,7
327,687	2,72
328,055	2,73
328,423	2,91
328,79	3,02
329,158	3,21
329,525	3,26
329,893	3,23
330,26	3,17
330,628	3,19
330,995	3,17
331,362	3,13
331,73	3,35
332,097	3,64
332,464	3,79
332,831	4,05
333,199	4,27
333,566	4,52
333,933	4,66
334,3	4,66
334,667	4,76
335,034	4,75
335,401	4,83
335,768	4,65
336,135	4,46
336,502	4,37
336,868	4,42
337,235	4,57
337,602	4,62
337,969	4,83
338,335	4,77
338,702	4,82
339,069	5
339,435	5,1
339,802	4,92
340,168	4,8
340,535	4,69
340,901	4,71
341,267	4,71
341,634	4,78
342	4,84
342,366	4,87
342,733	5,07
343,099	5,12
343,465	5,22
343,831	5,4
344,197	5,64
344,563	5,68
344,929	5,63
345,295	5,61
345,661	5,67
346,027	5,8
346,393	5,89
346,759	5,85
347,125	5,67
347,491	5,66
347,856	5,65
348,222	5,78
348,588	5,58
348,953	5,47
349,319	5,52
349,684	5,47
350,05	5,57
350,415	5,52
350,781	5,52
351,146	5,52
351,512	5,48
351,877	5,38
352,242	5,37
352,608	5,4
352,973	5,5
353,338	5,5
353,703	5,46
354,068	5,42
354,433	5,33
354,798	5,41
355,164	5,52
355,528	5,6
355,893	5,64
356,258	5,82
356,623	5,97
356,988	5,89
357,353	5,85
357,718	5,82
358,082	5,86
358,447	5,95
358,812	6,01
359,176	6,02
359,541	6,03
359,905	6,08
360,27	6,11
360,634	6,16
360,999	6,24
361,363	6,19
361,728	6,12
362,092	6,12
362,456	6,12
362,821	6
363,185	6,01
363,549	5,98
363,913	6,01
364,277	6
364,641	6,06
365,005	6,18
365,369	6,24
365,733	6,3
366,097	6,29
366,461	6,33
366,825	6,35
367,189	6,47
367,553	6,48
367,916	6,55
368,28	6,59
368,644	6,65
369,007	6,85
369,371	6,99
369,734	7,2
370,098	7,4
370,461	7,63
370,825	7,76
371,188	7,85
371,552	7,93
371,915	8,04
372,278	8,14
372,642	8,27
373,005	8,34
373,368	8,35
373,731	8,46
374,094	8,57
374,457	8,71
374,82	8,73
375,183	8,83
375,546	8,92
375,909	9,02
376,272	9,11
376,635	9,14
376,998	9,2
377,361	9,2
377,723	9,22
378,086	9,25
378,449	9,21
378,811	9,25
379,174	9,26
379,537	9,3
379,899	9,35
380,262	9,38
380,624	9,41
380,987	9,48
381,349	9,48
381,711	9,49
382,074	9,47
382,436	9,51
382,798	9,56
383,16	9,56
383,522	9,54
383,884	9,52
384,247	9,52
384,609	9,54
384,971	9,52
385,333	9,53
385,695	9,51
386,056	9,53
386,418	9,48
386,78	9,49
387,142	9,49
387,504	9,47
387,865	9,4
388,227	9,36
388,589	9,37
388,95	9,38
389,312	9,38
389,673	9,43
390,035	9,44
390,396	9,42
390,758	9,43
391,119	9,41
391,48	9,35
391,842	9,32
392,203	9,28
392,564	9,3
392,925	9,31
393,286	9,28
393,648	9,32
394,009	9,4
394,37	9,42
394,731	9,4
395,092	9,44
395,452	9,49
395,813	9,54
396,174	9,55
396,535	9,56
396,896	9,53
397,257	9,48
397,617	9,48
397,978	9,52
398,338	9,52
398,699	9,52
399,06	9,56
399,42	9,57
399,781	9,59
400,141	9,59
400,501	9,54
400,862	9,57
401,222	9,59
401,582	9,56
401,943	9,54
402,303	9,54
402,663	9,51
403,023	9,5
403,383	9,52
403,743	9,49
404,103	9,53
404,463	9,59
404,823	9,64
405,183	9,64
405,543	9,63
405,903	9,61
406,262	9,64
406,622	9,66
406,982	9,68
407,342	9,66
407,701	9,63
408,061	9,68
408,42	9,71
408,78	9,69
409,139	9,7
409,499	9,72
409,858	9,74
410,217	9,72
410,577	9,71
410,936	9,67
411,295	9,67
411,655	9,61
412,014	9,57
412,373	9,53
412,732	9,49
413,091	9,45
413,45	9,41
413,809	9,37
414,168	9,32
414,527	9,27
414,886	9,22
415,245	9,22
415,603	9,17
415,962	9,12
416,321	9,08
416,679	9,04
417,038	8,98
417,397	8,93
417,755	8,9
418,114	8,88
418,472	8,86
418,831	8,86
419,189	8,86
419,547	8,86
419,906	8,85
420,264	8,84
420,622	8,83
420,981	8,83
421,339	8,84
421,697	8,85
422,055	8,87
422,413	8,9
422,771	8,93
423,129	8,98
423,487	9,01
423,845	9,07
424,203	9,1
424,56	9,18
424,918	9,25
425,276	9,33
425,634	9,38
425,991	9,44
426,349	9,51
426,707	9,59
427,064	9,64
427,422	9,73
427,779	9,83
428,137	9,96
428,494	10,07
428,851	10,15
429,209	10,23
429,566	10,3
429,923	10,33
430,28	10,33
430,637	10,34
430,995	10,37
431,352	10,35
431,709	10,37
432,066	10,37
432,423	10,36
432,78	10,39
433,137	10,41
433,493	10,42
433,85	10,45
434,207	10,43
434,564	10,44
434,92	10,44
435,277	10,45
435,634	10,45
435,99	10,44
436,347	10,44
436,703	10,48
437,06	10,52
437,416	10,53
437,773	10,56
438,129	10,56
438,485	10,57
438,841	10,59
439,198	10,62
439,554	10,63
439,91	10,65
440,266	10,66
440,622	10,68
440,978	10,7
441,334	10,69
441,69	10,69
442,046	10,66
442,402	10,67
442,758	10,63
443,113	10,62
443,469	10,62
443,825	10,62
444,181	10,61
444,536	10,62
444,892	10,64
445,247	10,68
445,603	10,72
445,958	10,74
446,314	10,77
446,669	10,78
447,025	10,81
447,38	10,83
447,735	10,84
448,09	10,87
448,446	10,89
448,801	10,93
449,156	10,95
449,511	11,03
449,866	11,1
450,221	11,19
450,576	11,28
450,931	11,36
451,286	11,44
451,641	11,52
451,995	11,57
452,35	11,64
452,705	11,66
453,06	11,67
453,414	11,7
453,769	11,71
454,123	11,72
454,478	11,72
454,832	11,73
455,187	11,72
455,541	11,69
455,896	11,65
456,25	11,58
456,604	11,57
456,958	11,55
457,313	11,51
457,667	11,51
458,021	11,5
458,375	11,51
458,729	11,54
459,083	11,55
459,437	11,56
459,791	11,56
460,145	11,57
460,499	11,57
460,852	11,58
461,206	11,6
461,56	11,59
461,914	11,59
462,267	11,6
462,621	11,61
462,974	11,65
463,328	11,69
463,681	11,76
464,035	11,81
464,388	11,85
464,742	11,91
465,095	11,93
465,448	11,92
465,801	11,91
466,155	11,88
466,508	11,85
466,861	11,84
467,214	11,83
467,567	11,83
467,92	11,84
468,273	11,86
468,626	11,85
468,979	11,88
469,332	11,9
469,684	11,89
470,037	11,91
470,39	11,92
470,743	11,96
471,095	11,99
471,448	12,01
471,8	12
472,153	11,98
472,505	11,98
472,858	12,01
473,21	12,02
473,562	12,02
473,915	12,02
474,267	12,02
474,619	12,01
474,971	11,99
475,324	11,98
475,676	11,94
476,028	11,93
476,38	11,93
476,732	11,91
477,084	11,92
477,436	11,9
477,787	11,86
478,139	11,85
478,491	11,82
478,843	11,79
479,195	11,77
479,546	11,75
479,898	11,66
480,249	11,56
480,601	11,5
480,952	11,44
481,304	11,41
481,655	11,39
482,007	11,38
482,358	11,36
482,709	11,34
483,061	11,33
483,412	11,31
483,763	11,29
484,114	11,27
484,465	11,25
484,816	11,24
485,167	11,23
485,518	11,22
485,869	11,22
486,22	11,21
486,571	11,22
486,922	11,23
487,272	11,26
487,623	11,28
487,974	11,29
488,324	11,33
488,675	11,34
489,025	11,37
489,376	11,37
489,726	11,39
490,077	11,42
490,427	11,45
490,778	11,49
491,128	11,54
491,478	11,6
491,828	11,65
492,179	11,71
492,529	11,74
492,879	11,8
493,229	11,83
493,579	11,88
493,929	11,92
494,279	11,94
494,629	11,96
494,979	12,02
495,328	12,09
495,678	12,17
496,028	12,26
496,378	12,33
496,727	12,41
497,077	12,49
497,426	12,54
497,776	12,56
498,125	12,61
498,475	12,64
498,824	12,69
499,174	12,74
499,523	12,79
499,872	12,85
500,221	12,89
500,571	12,95
500,92	13,02
501,269	13,04
501,618	13,09
501,967	13,17
502,316	13,21
502,665	13,28
503,014	13,36
503,363	13,43
503,711	13,49
504,06	13,53
504,409	13,57
504,758	13,63
505,106	13,71
505,455	13,73
505,803	13,78
506,152	13,8
506,5	13,83
506,849	13,87
507,197	13,92
507,546	13,99
507,894	14,07
508,242	14,14
508,59	14,23
508,939	14,32
509,287	14,38
509,635	14,45
509,983	14,52
510,331	14,58
510,679	14,66
511,027	14,74
511,375	14,85
511,723	14,93
512,07	15,01
512,418	15,11
512,766	15,25
513,114	15,36
513,461	15,51
513,809	15,64
514,156	15,77
514,504	15,91
514,851	16
515,199	16,09
515,546	16,2
515,893	16,32
516,241	16,43
516,588	16,52
516,935	16,65
517,282	16,76
517,63	16,87
517,977	16,97
518,324	17,06
518,671	17,14
519,018	17,23
519,365	17,34
519,711	17,43
520,058	17,51
520,405	17,62
520,752	17,72
521,099	17,83
521,445	17,96
521,792	18,09
522,138	18,24
522,485	18,41
522,832	18,52
523,178	18,67
523,524	18,82
523,871	18,97
524,217	19,07
524,563	19,18
524,91	19,3
525,256	19,38
525,602	19,46
525,948	19,51
526,294	19,57
526,64	19,62
526,986	19,67
527,332	19,7
527,678	19,74
528,024	19,76
528,37	19,81
528,716	19,84
529,061	19,88
529,407	19,93
529,753	19,99
530,098	20,05
530,444	20,08
530,789	20,12
531,135	20,16
531,48	20,19
531,826	20,25
532,171	20,32
532,516	20,39
532,862	20,47
533,207	20,56
533,552	20,65
533,897	20,71
534,242	20,77
534,587	20,84
534,932	20,91
535,277	20,97
535,622	21
535,967	21,04
536,312	21,1
536,657	21,17
537,001	21,22
537,346	21,28
537,691	21,34
538,035	21,38
538,38	21,38
538,724	21,41
539,069	21,41
539,413	21,41
539,758	21,44
540,102	21,49
540,446	21,52
540,791	21,53
541,135	21,55
541,479	21,58
541,823	21,58
542,167	21,56
542,512	21,58
542,856	21,58
543,2	21,58
543,543	21,57
543,887	21,56
544,231	21,59
544,575	21,6
544,919	21,64
545,262	21,7
545,606	21,76
545,95	21,81
546,293	21,85
546,637	21,9
546,98	21,96
547,324	21,98
547,667	22,04
548,011	22,07
548,354	22,09
548,697	22,09
549,04	22,13
549,384	22,14
549,727	22,13
550,07	22,14
550,413	22,17
550,756	22,19
551,099	22,21
551,442	22,19
551,785	22,22
552,128	22,22
552,47	22,16
552,813	22,13
553,156	22,12
553,499	22,11
553,841	22,1
554,184	22,05
554,526	22,02
554,869	21,97
555,211	21,96
555,554	21,93
555,896	21,87
556,238	21,89
556,581	21,87
556,923	21,82
557,265	21,77
557,607	21,73
557,949	21,71
558,291	21,69
558,633	21,64
558,975	21,59
559,317	21,51
559,659	21,46
560,001	21,43
560,343	21,39
560,685	21,31
561,026	21,22
561,368	21,2
561,71	21,16
562,051	21,11
562,393	21,07
562,734	21
563,076	20,96
563,417	20,87
563,759	20,83
564,1	20,81
564,441	20,8
564,782	20,74
565,124	20,67
565,465	20,59
565,806	20,52
566,147	20,46
566,488	20,4
566,829	20,35
567,17	20,28
567,511	20,22
567,851	20,19
568,192	20,14
568,533	20,06
568,874	19,96
569,214	19,92
569,555	19,82
569,895	19,77
570,236	19,7
570,576	19,6
570,917	19,51
571,257	19,42
571,598	19,34
571,938	19,26
572,278	19,19
572,618	19,13
572,959	19,08
573,299	19,04
573,639	19
573,979	18,97
574,319	18,94
574,659	18,86
574,999	18,76
575,339	18,68
575,678	18,61
576,018	18,51
576,358	18,44
576,698	18,39
577,037	18,33
577,377	18,28
577,716	18,24
578,056	18,19
578,395	18,14
578,735	18,05
579,074	17,98
579,413	17,93
579,753	17,87
580,092	17,81
580,431	17,74
580,77	17,67
581,109	17,59
581,448	17,55
581,787	17,52
582,126	17,49
582,465	17,47
582,804	17,43
583,143	17,48
583,482	17,41
583,82	17,37
584,159	17,28
584,498	17,25
584,836	17,19
585,175	17,15
585,514	17,1
585,852	17,07
586,19	17,06
586,529	17,03
586,867	17
587,205	16,97
587,544	16,92
587,882	16,91
588,22	16,9
588,558	16,86
588,896	16,8
589,234	16,75
589,572	16,72
589,91	16,68
590,248	16,64
590,586	16,63
590,924	16,58
591,262	16,6
591,599	16,57
591,937	16,58
592,275	16,58
592,612	16,57
592,95	16,58
593,287	16,59
593,625	16,61
593,962	16,62
594,299	16,61
594,637	16,63
594,974	16,61
595,311	16,58
595,648	16,56
595,985	16,58
596,322	16,59
596,659	16,59
596,996	16,61
597,333	16,57
597,67	16,56
598,007	16,58
598,344	16,55
598,681	16,58
599,017	16,55
599,354	16,51
599,691	16,53
600,027	16,53
600,364	16,48
600,7	16,45
601,037	16,42
601,373	16,4
601,71	16,36
602,046	16,35
602,382	16,33
602,718	16,33
603,054	16,28
603,391	16,25
603,727	16,23
604,063	16,24
604,399	16,23
604,735	16,18
605,071	16,13
605,406	16,13
605,742	16,08
606,078	16,05
606,414	16,04
606,749	16,01
607,085	15,95
607,421	15,91
607,756	15,87
608,092	15,81
608,427	15,79
608,762	15,74
609,098	15,68
609,433	15,64
609,768	15,57
610,104	15,58
610,439	15,53
610,774	15,47
611,109	15,36
611,444	15,32
611,779	15,31
612,114	15,26
612,449	15,21
612,784	15,17
613,118	15,13
613,453	15,09
613,788	15
614,123	14,95
614,457	14,91
614,792	14,84
615,126	14,79
615,461	14,65
615,795	14,61
616,13	14,53
616,464	14,51
616,798	14,49
617,132	14,4
617,467	14,4
617,801	14,31
618,135	14,29
618,469	14,29
618,803	14,29
619,137	14,31
619,471	14,28
619,805	14,27
620,139	14,24
620,472	14,2
620,806	14,19
621,14	14,16
621,473	14,11
621,807	14,08
622,141	14,09
622,474	14,13
622,808	14,12
623,141	14,15
623,474	14,16
623,808	14,2
624,141	14,2
624,474	14,18
624,807	14,22
625,141	14,22
625,474	14,18
625,807	14,17
626,14	14,13
626,473	14,12
626,806	14,11
627,138	14,09
627,471	14,04
627,804	13,99
628,137	13,98
628,469	13,99
628,802	14,02
629,135	14,02
629,467	14,04
629,8	14,03
630,132	14,03
630,465	13,99
630,797	13,93
631,129	13,93
631,461	13,92
631,794	13,93
632,126	13,94
632,458	13,95
632,79	13,89
633,122	13,88
633,454	13,88
633,786	13,83
634,118	13,82
634,45	13,85
634,781	13,9
635,113	13,9
635,445	13,85
635,777	13,83
636,108	13,78
636,44	13,74
636,771	13,71
637,103	13,67
637,434	13,65
637,765	13,6
638,097	13,59
638,428	13,52
638,759	13,47
639,09	13,46
639,422	13,43
639,753	13,42
640,084	13,36
640,415	13,35
640,746	13,36
641,077	13,32
641,407	13,31
641,738	13,22
642,069	13,21
642,4	13,18
642,73	13,14
643,061	13,12
643,392	13,1
643,722	13,06
644,053	13,02
644,383	12,99
644,713	12,92
645,044	12,82
645,374	12,78
645,704	12,69
646,034	12,63
646,365	12,6
646,695	12,57
647,025	12,55
647,355	12,43
647,685	12,34
648,015	12,3
648,344	12,24
648,674	12,28
649,004	12,23
649,334	12,26
649,663	12,21
649,993	12,17
650,323	12,15
650,652	12,13
650,982	12,15
651,311	12,13
651,64	12,15
651,97	12,16
