Data from palm_tumV_v_Reflection_00002.txt Node
Date: Fri Feb 11 16:20:50 ART 2022
User: Nati
Spectrometer: USB2E3644
Trigger mode: 4
Integration Time (sec): 4,100000E-2
Scans to average: 10
Electric dark correction enabled: true
Nonlinearity correction enabled: false
Boxcar width: 10
XAxis mode: Wavelengths
Number of Pixels in Spectrum: 2048
>>>>>Begin Spectral Data<<<<<
178,315	-165,52
178,696	-225
179,076	35,93
179,457	118,49
179,838	232,26
180,218	-441,18
180,599	-342,86
180,979	214,29
181,36	26,97
181,74	-30,61
182,121	-160,98
182,501	-109,09
182,881	-43,37
183,262	-17,52
183,642	-27,48
184,022	-4,9
184,402	0
184,783	19,02
185,163	21,15
185,543	26,6
185,923	-18,85
186,303	-61,8
186,683	-23,28
187,063	-28,01
187,443	-26,56
187,823	-10,3
188,203	3,97
188,583	15,29
188,963	27,46
189,343	25,66
189,723	35,48
190,102	43,11
190,482	45,69
190,862	47,35
191,242	49,47
191,621	55,37
192,001	54,72
192,38	52,21
192,76	48,17
193,14	41,3
193,519	39,87
193,898	40,57
194,278	45,38
194,657	46,54
195,037	50,23
195,416	51,26
195,795	50,24
196,175	46,03
196,554	38,75
196,933	33,72
197,312	36,59
197,692	35,46
198,071	31,47
198,45	30,31
198,829	33,64
199,208	36,01
199,587	40,28
199,966	43,14
200,345	43,67
200,724	48,9
201,103	55,05
201,482	59,65
201,86	63,43
202,239	64,3
202,618	69,03
202,997	71,93
203,375	69,21
203,754	71,03
204,133	69,72
204,511	71,49
204,89	72,17
205,269	67,02
205,647	63,34
206,026	68,72
206,404	69,64
206,782	67,31
207,161	67
207,539	60,74
207,918	56,2
208,296	55,9
208,674	51,71
209,052	48,8
209,431	42,16
209,809	35,77
210,187	32,9
210,565	24,12
210,943	11,51
211,321	9,56
211,699	6,83
212,077	17,19
212,455	27,6
212,833	32,1
213,211	28,7
213,589	30,55
213,967	28,1
214,345	33,7
214,722	31,61
215,1	28,44
215,478	38,61
215,855	42,29
216,233	41,07
216,611	41,21
216,988	42,23
217,366	46,12
217,743	44,53
218,121	46,55
218,498	50,48
218,876	54,39
219,253	54,01
219,631	51,4
220,008	50,22
220,385	48,49
220,762	46,86
221,14	50,69
221,517	54,59
221,894	60,83
222,271	59,47
222,648	56,6
223,025	55,7
223,402	48
223,78	45,98
224,157	45,21
224,533	48,22
224,91	51,61
225,287	49,17
225,664	56,07
226,041	57,49
226,418	56,65
226,795	55,46
227,171	54,62
227,548	55,04
227,925	52,9
228,301	48,63
228,678	52,29
229,055	54,12
229,431	53,32
229,808	51,22
230,184	47,52
230,561	47,76
230,937	48,28
231,313	50,2
231,69	54,36
232,066	56,99
232,442	55,18
232,819	52,3
233,195	53,46
233,571	55,39
233,947	56,37
234,323	53,41
234,699	55,2
235,075	56,43
235,451	52,08
235,827	54,14
236,203	52,54
236,579	48,23
236,955	43,34
237,331	37,84
237,707	35,87
238,083	41,84
238,459	43,84
238,834	44,44
239,21	41,86
239,586	36,16
239,961	33,55
240,337	33,28
240,713	32,98
241,088	32,87
241,464	31,62
241,839	28,78
242,215	29,96
242,59	28,23
242,965	26,6
243,341	26,94
243,716	24,2
244,091	24,47
244,467	24,15
244,842	23,92
245,217	24,62
245,592	23,64
245,967	22,5
246,343	21,96
246,718	21,78
247,093	21,68
247,468	21,73
247,843	22,35
248,218	22,44
248,593	22,11
248,967	21,75
249,342	20,64
249,717	20,29
250,092	20,08
250,467	20,24
250,841	21,23
251,216	22,63
251,591	25,74
251,965	27,84
252,34	28,3
252,714	28,46
253,089	27,19
253,463	27,59
253,838	26,16
254,212	24,55
254,587	23,36
254,961	24,46
255,335	25,84
255,71	25,86
256,084	25,43
256,458	25,4
256,832	25,63
257,206	25,49
257,581	25,91
257,955	25,95
258,329	25,64
258,703	25,69
259,077	24,75
259,451	22,95
259,825	21,65
260,199	21,6
260,572	21,88
260,946	23,14
261,32	23,79
261,694	24,84
262,068	24,77
262,441	24,45
262,815	23,81
263,189	23,25
263,562	22,67
263,936	22,64
264,309	22,62
264,683	21,89
265,056	22,08
265,43	21,47
265,803	20,98
266,176	21,08
266,55	20,75
266,923	20,88
267,296	21,15
267,67	20,77
268,043	20,24
268,416	20,03
268,789	20,06
269,162	20,32
269,535	20,45
269,908	21,21
270,281	22,06
270,654	22,19
271,027	22,35
271,4	22,79
271,773	23,22
272,146	23,4
272,519	23,88
272,891	23,94
273,264	24,28
273,637	24,93
274,01	25,45
274,382	25,65
274,755	26,34
275,127	26,76
275,5	27,23
275,872	27,3
276,245	27,56
276,617	27,37
276,99	27,26
277,362	26,88
277,734	26,72
278,107	26,02
278,479	25,57
278,851	25,12
279,223	25,03
279,596	24,63
279,968	24,23
280,34	23,84
280,712	23,75
281,084	23,44
281,456	22,88
281,828	22,46
282,2	22,26
282,572	21,67
282,944	21,81
283,315	21,87
283,687	21,91
284,059	21,9
284,431	22,31
284,802	22,26
285,174	22,14
285,546	21,76
285,917	21,82
286,289	22,21
286,66	22,49
287,032	22,46
287,403	22,62
287,775	23,32
288,146	23,69
288,518	23,61
288,889	23,71
289,26	24
289,632	23,95
290,003	23,87
290,374	23,64
290,745	23,67
291,116	24,18
291,487	24,5
291,858	24,54
292,229	23,98
292,6	23,43
292,971	23,39
293,342	23,59
293,713	23,67
294,084	23,55
294,455	23,32
294,826	23,3
295,196	22,94
295,567	22,23
295,938	22,09
296,308	21,99
296,679	21,76
297,05	21,29
297,42	21,14
297,791	21,03
298,161	21,27
298,532	21,03
298,902	20,5
299,272	20,39
299,643	20,07
300,013	20,04
300,383	20,17
300,754	20,28
301,124	20,13
301,494	19,49
301,864	19,08
302,234	18,97
302,604	18,48
302,974	18,71
303,344	18,55
303,714	18,39
304,084	18,13
304,454	18,15
304,824	18,06
305,194	18,2
305,563	18,38
305,933	18,32
306,303	18,64
306,673	18,82
307,042	18,95
307,412	19,39
307,781	19,34
308,151	18,9
308,521	18,39
308,89	18,2
309,259	18,34
309,629	18,54
309,998	18,79
310,368	19,07
310,737	18,77
311,106	18,84
311,475	18,69
311,845	18,93
312,214	18,91
312,583	18,97
312,952	18,92
313,321	18,88
313,69	18,75
314,059	18,53
314,428	18,57
314,797	18,35
315,166	18,4
315,535	18,9
315,904	19,36
316,272	19,75
316,641	20,07
317,01	20,34
317,379	20,5
317,747	20,51
318,116	20,54
318,484	20,74
318,853	20,74
319,221	20,7
319,59	20,57
319,958	20,8
320,327	20,89
320,695	20,83
321,063	20,44
321,432	20,47
321,8	20,41
322,168	20,3
322,536	20,46
322,905	20,15
323,273	19,67
323,641	19,72
324,009	19,77
324,377	19,58
324,745	19,45
325,113	19,17
325,481	19,02
325,849	18,98
326,216	19,06
326,584	19,06
326,952	19,16
327,32	19,25
327,687	19,13
328,055	19,36
328,423	19,51
328,79	19,73
329,158	19,74
329,525	19,59
329,893	19,38
330,26	19,06
330,628	18,76
330,995	18,62
331,362	18,37
331,73	18,24
332,097	18,37
332,464	18,47
332,831	18,69
333,199	18,69
333,566	18,61
333,933	18,6
334,3	18,74
334,667	18,63
335,034	18,45
335,401	18,44
335,768	18,22
336,135	18,1
336,502	18,07
336,868	18,11
337,235	18,29
337,602	18,2
337,969	18,19
338,335	18,37
338,702	18,44
339,069	18,5
339,435	18,37
339,802	18,18
340,168	18,11
340,535	17,98
340,901	18,01
341,267	18,09
341,634	17,94
342	17,71
342,366	17,68
342,733	17,72
343,099	17,69
343,465	17,63
343,831	17,55
344,197	17,54
344,563	17,41
344,929	17,36
345,295	17,45
345,661	17,58
346,027	17,62
346,393	17,6
346,759	17,57
347,125	17,59
347,491	17,74
347,856	17,72
348,222	17,79
348,588	17,7
348,953	17,58
349,319	17,58
349,684	17,65
350,05	17,67
350,415	17,58
350,781	17,63
351,146	17,65
351,512	17,64
351,877	17,58
352,242	17,66
352,608	17,56
352,973	17,68
353,338	17,65
353,703	17,49
354,068	17,49
354,433	17,37
354,798	17,27
355,164	17,12
355,528	17,17
355,893	17,17
356,258	17,16
356,623	17,19
356,988	17,09
357,353	17,02
357,718	16,92
358,082	16,93
358,447	16,84
358,812	16,96
359,176	17,14
359,541	17,16
359,905	17,13
360,27	17,2
360,634	17,11
360,999	17,08
361,363	17,11
361,728	17,03
362,092	17,04
362,456	17,01
362,821	17,04
363,185	16,96
363,549	16,93
363,913	16,97
364,277	16,95
364,641	17,06
365,005	17,1
365,369	17,19
365,733	17,28
366,097	17,33
366,461	17,32
366,825	17,14
367,189	17,07
367,553	17,04
367,916	16,97
368,28	16,98
368,644	17,01
369,007	16,94
369,371	17,02
369,734	17,14
370,098	17,22
370,461	17,2
370,825	17,19
371,188	17,04
371,552	16,97
371,915	16,93
372,278	16,84
372,642	16,78
373,005	16,74
373,368	16,68
373,731	16,56
374,094	16,48
374,457	16,44
374,82	16,46
375,183	16,43
375,546	16,5
375,909	16,45
376,272	16,37
376,635	16,49
376,998	16,47
377,361	16,44
377,723	16,44
378,086	16,39
378,449	16,39
378,811	16,43
379,174	16,4
379,537	16,41
379,899	16,44
380,262	16,43
380,624	16,45
380,987	16,43
381,349	16,41
381,711	16,36
382,074	16,38
382,436	16,33
382,798	16,38
383,16	16,29
383,522	16,28
383,884	16,3
384,247	16,25
384,609	16,24
384,971	16,22
385,333	16,25
385,695	16,23
386,056	16,18
386,418	16,2
386,78	16,18
387,142	16,16
387,504	16,02
387,865	16,04
388,227	16,04
388,589	16,06
388,95	16,14
389,312	16,15
389,673	16,11
390,035	16,11
390,396	16,08
390,758	16,04
391,119	16,06
391,48	16,08
391,842	16,02
392,203	15,96
392,564	15,92
392,925	15,82
393,286	15,84
393,648	15,86
394,009	15,84
394,37	15,81
394,731	15,8
395,092	15,88
395,452	15,85
395,813	15,81
396,174	15,75
396,535	15,71
396,896	15,68
397,257	15,69
397,617	15,69
397,978	15,69
398,338	15,72
398,699	15,65
399,06	15,63
399,42	15,61
399,781	15,61
400,141	15,6
400,501	15,65
400,862	15,64
401,222	15,68
401,582	15,73
401,943	15,75
402,303	15,8
402,663	15,84
403,023	15,86
403,383	15,86
403,743	15,9
404,103	15,91
404,463	15,96
404,823	15,95
405,183	15,98
405,543	15,91
405,903	15,89
406,262	15,93
406,622	15,87
406,982	15,89
407,342	15,92
407,701	15,95
408,061	15,95
408,42	15,95
408,78	15,91
409,139	15,91
409,499	15,88
409,858	15,86
410,217	15,81
410,577	15,8
410,936	15,82
411,295	15,8
411,655	15,78
412,014	15,77
412,373	15,79
412,732	15,77
413,091	15,82
413,45	15,83
413,809	15,85
414,168	15,88
414,527	15,86
414,886	15,81
415,245	15,8
415,603	15,8
415,962	15,79
416,321	15,75
416,679	15,73
417,038	15,76
417,397	15,75
417,755	15,75
418,114	15,75
418,472	15,72
418,831	15,7
419,189	15,68
419,547	15,68
419,906	15,69
420,264	15,66
420,622	15,66
420,981	15,67
421,339	15,66
421,697	15,68
422,055	15,69
422,413	15,71
422,771	15,71
423,129	15,71
423,487	15,74
423,845	15,76
424,203	15,77
424,56	15,77
424,918	15,77
425,276	15,79
425,634	15,8
425,991	15,83
426,349	15,85
426,707	15,88
427,064	15,89
427,422	15,91
427,779	15,96
428,137	16
428,494	16,02
428,851	16,07
429,209	16,07
429,566	16,11
429,923	16,17
430,28	16,2
430,637	16,24
430,995	16,25
431,352	16,27
431,709	16,25
432,066	16,28
432,423	16,29
432,78	16,31
433,137	16,35
433,493	16,39
433,85	16,44
434,207	16,49
434,564	16,52
434,92	16,53
435,277	16,57
435,634	16,56
435,99	16,59
436,347	16,59
436,703	16,63
437,06	16,63
437,416	16,64
437,773	16,67
438,129	16,7
438,485	16,72
438,841	16,75
439,198	16,77
439,554	16,78
439,91	16,81
440,266	16,82
440,622	16,84
440,978	16,86
441,334	16,87
441,69	16,87
442,046	16,85
442,402	16,89
442,758	16,88
443,113	16,92
443,469	16,94
443,825	16,97
444,181	16,98
444,536	17,03
444,892	17,06
445,247	17,1
445,603	17,12
445,958	17,16
446,314	17,16
446,669	17,21
447,025	17,24
447,38	17,26
447,735	17,29
448,09	17,31
448,446	17,32
448,801	17,35
449,156	17,38
449,511	17,42
449,866	17,46
450,221	17,52
450,576	17,56
450,931	17,59
451,286	17,63
451,641	17,68
451,995	17,73
452,35	17,73
452,705	17,72
453,06	17,73
453,414	17,73
453,769	17,75
454,123	17,75
454,478	17,75
454,832	17,76
455,187	17,78
455,541	17,79
455,896	17,78
456,25	17,78
456,604	17,81
456,958	17,79
457,313	17,8
457,667	17,8
458,021	17,82
458,375	17,83
458,729	17,82
459,083	17,82
459,437	17,82
459,791	17,83
460,145	17,83
460,499	17,83
460,852	17,83
461,206	17,86
461,56	17,85
461,914	17,87
462,267	17,87
462,621	17,88
462,974	17,9
463,328	17,92
463,681	17,95
464,035	17,94
464,388	17,99
464,742	18
465,095	18
465,448	17,99
465,801	17,98
466,155	18,03
466,508	18,03
466,861	18,02
467,214	18,02
467,567	18,02
467,92	18,02
468,273	18,03
468,626	18,01
468,979	18,02
469,332	18,02
469,684	18,02
470,037	18
470,39	17,98
470,743	17,97
471,095	17,99
471,448	17,99
471,8	17,98
472,153	17,98
472,505	17,98
472,858	17,98
473,21	17,99
473,562	17,97
473,915	17,96
474,267	17,98
474,619	17,98
474,971	18
475,324	18
475,676	18,02
476,028	18,03
476,38	18,03
476,732	18,02
477,084	18
477,436	18,01
477,787	18,01
478,139	17,99
478,491	17,96
478,843	17,96
479,195	17,96
479,546	17,95
479,898	17,93
480,249	17,91
480,601	17,93
480,952	17,92
481,304	17,91
481,655	17,88
482,007	17,86
482,358	17,85
482,709	17,83
483,061	17,82
483,412	17,81
483,763	17,8
484,114	17,79
484,465	17,78
484,816	17,78
485,167	17,79
485,518	17,8
485,869	17,81
486,22	17,81
486,571	17,81
486,922	17,8
487,272	17,81
487,623	17,81
487,974	17,82
488,324	17,81
488,675	17,82
489,025	17,83
489,376	17,85
489,726	17,87
490,077	17,88
490,427	17,89
490,778	17,9
491,128	17,91
491,478	17,94
491,828	17,97
492,179	17,98
492,529	17,99
492,879	18
493,229	18,02
493,579	18,04
493,929	18,05
494,279	18,07
494,629	18,08
494,979	18,09
495,328	18,09
495,678	18,12
496,028	18,15
496,378	18,17
496,727	18,22
497,077	18,23
497,426	18,26
497,776	18,27
498,125	18,3
498,475	18,31
498,824	18,32
499,174	18,35
499,523	18,34
499,872	18,34
500,221	18,37
500,571	18,39
500,92	18,39
501,269	18,42
501,618	18,41
501,967	18,45
502,316	18,47
502,665	18,5
503,014	18,57
503,363	18,59
503,711	18,62
504,06	18,62
504,409	18,65
504,758	18,69
505,106	18,75
505,455	18,79
505,803	18,82
506,152	18,82
506,5	18,83
506,849	18,9
507,197	18,94
507,546	18,96
507,894	18,98
508,242	19
508,59	19,04
508,939	19,08
509,287	19,11
509,635	19,12
509,983	19,14
510,331	19,13
510,679	19,17
511,027	19,22
511,375	19,25
511,723	19,28
512,07	19,31
512,418	19,32
512,766	19,36
513,114	19,4
513,461	19,47
513,809	19,52
514,156	19,57
514,504	19,59
514,851	19,63
515,199	19,7
515,546	19,74
515,893	19,81
516,241	19,88
516,588	19,92
516,935	19,98
517,282	20,02
517,63	20,06
517,977	20,09
518,324	20,1
518,671	20,14
519,018	20,21
519,365	20,26
519,711	20,29
520,058	20,34
520,405	20,39
520,752	20,43
521,099	20,47
521,445	20,51
521,792	20,58
522,138	20,62
522,485	20,67
522,832	20,74
523,178	20,79
523,524	20,82
523,871	20,87
524,217	20,93
524,563	20,99
524,91	21,09
525,256	21,16
525,602	21,22
525,948	21,24
526,294	21,26
526,64	21,26
526,986	21,28
527,332	21,29
527,678	21,31
528,024	21,35
528,37	21,37
528,716	21,41
529,061	21,43
529,407	21,46
529,753	21,5
530,098	21,53
530,444	21,56
530,789	21,58
531,135	21,6
531,48	21,61
531,826	21,64
532,171	21,65
532,516	21,67
532,862	21,7
533,207	21,75
533,552	21,79
533,897	21,83
534,242	21,89
534,587	21,92
534,932	21,96
535,277	21,96
535,622	21,98
535,967	21,99
536,312	22
536,657	22,03
537,001	22,04
537,346	22,05
537,691	22,06
538,035	22,08
538,38	22,08
538,724	22,08
539,069	22,09
539,413	22,1
539,758	22,11
540,102	22,14
540,446	22,15
540,791	22,15
541,135	22,16
541,479	22,14
541,823	22,14
542,167	22,16
542,512	22,18
542,856	22,15
543,2	22,14
543,543	22,15
543,887	22,15
544,231	22,14
544,575	22,17
544,919	22,16
545,262	22,17
545,606	22,16
545,95	22,17
546,293	22,15
546,637	22,15
546,98	22,14
547,324	22,12
547,667	22,11
548,011	22,1
548,354	22,09
548,697	22,12
549,04	22,15
549,384	22,13
549,727	22,11
550,07	22,15
550,413	22,18
550,756	22,2
551,099	22,2
551,442	22,23
551,785	22,26
552,128	22,27
552,47	22,29
552,813	22,37
553,156	22,4
553,499	22,4
553,841	22,41
554,184	22,43
554,526	22,42
554,869	22,42
555,211	22,44
555,554	22,42
555,896	22,4
556,238	22,39
556,581	22,42
556,923	22,39
557,265	22,37
557,607	22,37
557,949	22,34
558,291	22,33
558,633	22,27
558,975	22,2
559,317	22,2
559,659	22,22
560,001	22,16
560,343	22,11
560,685	22,12
561,026	22,12
561,368	22,1
561,71	22,09
562,051	22,07
562,393	22,05
562,734	22,03
563,076	21,98
563,417	21,91
563,759	21,84
564,1	21,84
564,441	21,84
564,782	21,79
565,124	21,77
565,465	21,76
565,806	21,76
566,147	21,76
566,488	21,73
566,829	21,67
567,17	21,65
567,511	21,65
567,851	21,62
568,192	21,55
568,533	21,52
568,874	21,5
569,214	21,46
569,555	21,43
569,895	21,4
570,236	21,37
570,576	21,36
570,917	21,35
571,257	21,3
571,598	21,28
571,938	21,24
572,278	21,21
572,618	21,17
572,959	21,16
573,299	21,11
573,639	21,07
573,979	21,04
574,319	20,96
574,659	20,93
574,999	20,91
575,339	20,9
575,678	20,84
576,018	20,8
576,358	20,81
576,698	20,74
577,037	20,75
577,377	20,71
577,716	20,64
578,056	20,63
578,395	20,61
578,735	20,56
579,074	20,52
579,413	20,49
579,753	20,45
580,092	20,4
580,431	20,36
580,77	20,36
581,109	20,4
581,448	20,46
581,787	20,42
582,126	20,44
582,465	20,42
582,804	20,4
583,143	20,36
583,482	20,34
583,82	20,39
584,159	20,29
584,498	20,32
584,836	20,35
585,175	20,33
585,514	20,31
585,852	20,29
586,19	20,3
586,529	20,27
586,867	20,27
587,205	20,24
587,544	20,23
587,882	20,21
588,22	20,16
588,558	20,12
588,896	20,09
589,234	19,99
589,572	19,97
589,91	19,94
590,248	19,89
590,586	19,83
590,924	19,79
591,262	19,79
591,599	19,72
591,937	19,69
592,275	19,63
592,612	19,64
592,95	19,6
593,287	19,59
593,625	19,56
593,962	19,57
594,299	19,57
594,637	19,57
594,974	19,53
595,311	19,52
595,648	19,52
595,985	19,53
596,322	19,55
596,659	19,56
596,996	19,59
597,333	19,63
597,67	19,63
598,007	19,61
598,344	19,6
598,681	19,65
599,017	19,66
599,354	19,66
599,691	19,64
600,027	19,67
600,364	19,66
600,7	19,69
601,037	19,67
601,373	19,67
601,71	19,69
602,046	19,68
602,382	19,64
602,718	19,61
603,054	19,6
603,391	19,58
603,727	19,57
604,063	19,57
604,399	19,52
604,735	19,5
605,071	19,5
605,406	19,47
605,742	19,45
606,078	19,43
606,414	19,42
606,749	19,41
607,085	19,38
607,421	19,39
607,756	19,36
608,092	19,35
608,427	19,34
608,762	19,28
609,098	19,28
609,433	19,3
609,768	19,31
610,104	19,3
610,439	19,3
610,774	19,29
611,109	19,28
611,444	19,29
611,779	19,32
612,114	19,34
612,449	19,37
612,784	19,34
613,118	19,35
613,453	19,34
613,788	19,31
614,123	19,29
614,457	19,22
614,792	19,22
615,126	19,18
615,461	19,09
615,795	19,09
616,13	19,06
616,464	19,04
616,798	19,05
617,132	18,99
617,467	19
617,801	19,02
618,135	19,01
618,469	18,97
618,803	18,93
619,137	18,87
619,471	18,86
619,805	18,85
620,139	18,8
620,472	18,82
620,806	18,84
621,14	18,85
621,473	18,88
621,807	18,88
622,141	18,89
622,474	18,94
622,808	18,92
623,141	18,92
623,474	18,92
623,808	18,84
624,141	18,86
624,474	18,88
624,807	18,85
625,141	18,87
625,474	18,86
625,807	18,88
626,14	18,84
626,473	18,82
626,806	18,8
627,138	18,81
627,471	18,8
627,804	18,78
628,137	18,75
628,469	18,7
628,802	18,66
629,135	18,63
629,467	18,61
629,8	18,62
630,132	18,62
630,465	18,64
630,797	18,65
631,129	18,65
631,461	18,6
631,794	18,56
632,126	18,48
632,458	18,5
632,79	18,5
633,122	18,52
633,454	18,51
633,786	18,49
634,118	18,47
634,45	18,44
634,781	18,44
635,113	18,39
635,445	18,42
635,777	18,47
636,108	18,51
636,44	18,54
636,771	18,53
637,103	18,51
637,434	18,47
637,765	18,46
638,097	18,46
638,428	18,45
638,759	18,44
639,09	18,45
639,422	18,43
639,753	18,37
640,084	18,36
640,415	18,33
640,746	18,34
641,077	18,32
641,407	18,27
641,738	18,22
642,069	18,24
642,4	18,2
642,73	18,15
643,061	18,08
643,392	18,02
643,722	17,95
644,053	17,95
644,383	17,92
644,713	17,92
645,044	17,89
645,374	17,89
645,704	17,9
646,034	17,85
646,365	17,82
646,695	17,83
647,025	17,82
647,355	17,81
647,685	17,8
648,015	17,81
648,344	17,8
648,674	17,85
649,004	17,83
649,334	17,83
649,663	17,83
649,993	17,82
650,323	17,82
650,652	17,8
650,982	17,77
651,311	17,75
651,64	17,74
