Data from Anodorhynchus_glaucus_belly_Reflection_2.txt Node
Date: Wed Mar 10 12:54:58 GMT-03:00 2021
User: Darío
Spectrometer: USB2E3644
Trigger mode: 4
Integration Time (sec): 5.600000E-2
Scans to average: 10
Electric dark correction enabled: true
Nonlinearity correction enabled: false
Boxcar width: 10
XAxis mode: Wavelengths
Number of Pixels in Spectrum: 2048
>>>>>Begin Spectral Data<<<<<
178.315	174.58
178.696	142.35
179.076	142.79
179.457	134.77
179.838	128.22
180.218	120.16
180.599	99.1
180.979	100
181.36	82.31
181.74	96.41
182.121	119.57
182.501	127.89
182.881	143.07
183.262	146.18
183.642	145.34
184.022	150.71
184.402	151.65
184.783	153.61
185.163	157.99
185.543	161.55
185.923	165.11
186.303	172.07
186.683	173.37
187.063	167.93
187.443	160.55
187.823	157.52
188.203	160.32
188.583	161.76
188.963	169.02
189.343	176.67
189.723	176.71
190.102	181.31
190.482	183.68
190.862	179.78
191.242	178.31
191.621	174.88
192.001	174.65
192.38	174.67
192.76	174.26
193.14	172.45
193.519	168.16
193.898	161.23
194.278	160.24
194.657	159.07
195.037	159.51
195.416	161.44
195.795	160.78
196.175	158.31
196.554	154.55
196.933	151.04
197.312	150.2
197.692	148.32
198.071	147.99
198.45	148.92
198.829	147.58
199.208	145.73
199.587	146.13
199.966	147.15
200.345	147.63
200.724	144.89
201.103	142.89
201.482	142.26
201.86	148.41
202.239	150.56
202.618	150.92
202.997	154.96
203.375	154.22
203.754	152.15
204.133	147.19
204.511	148.6
204.89	145.93
205.269	142.39
205.647	143.99
206.026	142.63
206.404	140.32
206.782	141.05
207.161	145.44
207.539	149.33
207.918	150.16
208.296	153.49
208.674	160.84
209.052	169.71
209.431	176.16
209.809	171.06
210.187	168.59
210.565	165.98
210.943	164.73
211.321	165.04
211.699	169.88
212.077	183.55
212.455	192.47
212.833	213.28
213.211	225.64
213.589	235.83
213.967	224.85
214.345	229.79
214.722	237.37
215.1	245.24
215.478	264.38
215.855	274.51
216.233	281.2
216.611	268.17
216.988	257.46
217.366	259.91
217.743	306.98
218.121	346.66
218.498	408.44
218.876	411.54
219.253	469.46
219.631	562.56
220.008	532.84
220.385	627.66
220.762	592.86
221.14	693.71
221.517	718.39
221.894	1280.12
222.271	1841.53
222.648	7525
223.025	7289.29
223.402	2332.95
223.78	5147.5
224.157	1509.56
224.533	1022.96
224.91	778.52
225.287	654.35
225.664	595.41
226.041	614.86
226.418	582.51
226.795	555.58
227.171	577.27
227.548	626.55
227.925	702.74
228.301	660.98
228.678	785.57
229.055	739.33
229.431	977.73
229.808	1075
230.184	956.07
230.561	930.54
230.937	1426.24
231.313	1737.79
231.69	3681.71
232.066	-6984.09
232.442	-2424.22
232.819	-1512.14
233.195	-1698.35
233.571	-3117.35
233.947	77275
234.323	4932.81
234.699	5577.59
235.075	8357.5
235.451	-42762.5
235.827	-3254.81
236.203	-2008.82
236.579	-1391.32
236.955	-769.43
237.331	-570.62
237.707	-394.37
238.083	-289.88
238.459	-218.26
238.834	-176.58
239.21	-143.63
239.586	-129.54
239.961	-114.9
240.337	-106.91
240.713	-100.63
241.088	-95.73
241.464	-90.03
241.839	-86.31
242.215	-76.41
242.59	-67.18
242.965	-54.26
243.341	-40.87
243.716	-32.51
244.091	-26.68
244.467	-22.34
244.842	-21.18
245.217	-21.46
245.592	-20.8
245.967	-20.55
246.343	-21.61
246.718	-22.89
247.093	-23.57
247.468	-24.85
247.843	-24.82
248.218	-23.79
248.593	-23.1
248.967	-21.96
249.342	-21.09
249.717	-19.73
250.092	-19.2
250.467	-18.78
250.841	-19.87
251.216	-22.37
251.591	-25.63
251.965	-27.75
252.34	-32.05
252.714	-34.96
253.089	-36.43
253.463	-38.33
253.838	-38.87
254.212	-35.79
254.587	-33.47
254.961	-30.33
255.335	-25.77
255.71	-22.84
256.084	-19.38
256.458	-15.64
256.832	-13.36
257.206	-11.86
257.581	-12.04
257.955	-11.95
258.329	-11.74
258.703	-11.07
259.077	-10.65
259.451	-10.3
259.825	-10.19
260.199	-10.01
260.572	-9.57
260.946	-9.68
261.32	-9.62
261.694	-8.8
262.068	-8.53
262.441	-7.6
262.815	-6.92
263.189	-6.6
263.562	-6.45
263.936	-6.75
264.309	-7.25
264.683	-7.39
265.056	-7.66
265.43	-7.08
265.803	-6.96
266.176	-7.04
266.55	-6.76
266.923	-6.75
267.296	-6.73
267.67	-6.83
268.043	-6.78
268.416	-6.2
268.789	-5.71
269.162	-5.22
269.535	-5.36
269.908	-5.34
270.281	-5.79
270.654	-6.23
271.027	-6.72
271.4	-7
271.773	-7.11
272.146	-7.36
272.519	-8.08
272.891	-8.26
273.264	-8.11
273.637	-7.65
274.01	-7.16
274.382	-7.13
274.755	-7.42
275.127	-7.51
275.5	-7.61
275.872	-6.97
276.245	-6.95
276.617	-6.7
276.99	-6.89
277.362	-6.6
277.734	-5.84
278.107	-5.18
278.479	-4.41
278.851	-4.32
279.223	-3.81
279.596	-3.28
279.968	-3.14
280.34	-2.69
280.712	-2.23
281.084	-1.8
281.456	-1.54
281.828	-1.16
282.2	-0.94
282.572	-0.41
282.944	-0.26
283.315	-0.14
283.687	-0.29
284.059	-0.15
284.431	-0.06
284.802	-0.06
285.174	-0.29
285.546	-0.58
285.917	-0.69
286.289	-0.79
286.66	-0.64
287.032	-0.76
287.403	-0.7
287.775	-0.72
288.146	-0.53
288.518	-0.63
288.889	-1.06
289.26	-1.48
289.632	-1.97
290.003	-2.08
290.374	-2.1
290.745	-2.03
291.116	-1.89
291.487	-1.58
291.858	-1.42
292.229	-1.51
292.6	-1.08
292.971	-0.67
293.342	-0.3
293.713	-0
294.084	0.21
294.455	0.46
294.826	0.77
295.196	0.74
295.567	0.91
295.938	0.86
296.308	1.05
296.679	1.15
297.05	1.32
297.42	1.4
297.791	1.43
298.161	1.59
298.532	1.81
298.902	2.02
299.272	2.32
299.643	2.51
300.013	2.73
300.383	2.75
300.754	2.78
301.124	2.68
301.494	2.41
301.864	2.23
302.234	2.2
302.604	2.17
302.974	2.23
303.344	2.24
303.714	2.37
304.084	2.47
304.454	2.89
304.824	3.24
305.194	3.65
305.563	3.73
305.933	3.95
306.303	3.99
306.673	4.11
307.042	4.06
307.412	3.86
307.781	3.88
308.151	3.91
308.521	4.06
308.89	4.13
309.259	4.32
309.629	4.51
309.998	4.55
310.368	4.57
310.737	4.64
311.106	4.66
311.475	4.76
311.845	4.74
312.214	4.72
312.583	4.72
312.952	4.63
313.321	4.63
313.69	4.49
314.059	4.69
314.428	4.84
314.797	4.77
315.166	4.97
315.535	5.16
315.904	5.15
316.272	5.02
316.641	5.19
317.01	5.36
317.379	5.39
317.747	5.44
318.116	5.43
318.484	5.47
318.853	5.52
319.221	5.68
319.59	5.86
319.958	5.72
320.327	5.6
320.695	5.63
321.063	5.72
321.432	5.7
321.8	5.65
322.168	5.5
322.536	5.51
322.905	5.35
323.273	5.16
323.641	5.37
324.009	5.48
324.377	5.36
324.745	5.45
325.113	5.47
325.481	5.54
325.849	5.71
326.216	5.84
326.584	5.92
326.952	5.86
327.32	5.92
327.687	6.08
328.055	6.24
328.423	6.32
328.79	6.43
329.158	6.5
329.525	6.48
329.893	6.41
330.26	6.51
330.628	6.62
330.995	6.57
331.362	6.36
331.73	6.35
332.097	6.39
332.464	6.26
332.831	6.23
333.199	6.35
333.566	6.4
333.933	6.43
334.3	6.55
334.667	6.48
335.034	6.33
335.401	6.38
335.768	6.44
336.135	6.44
336.502	6.46
336.868	6.57
337.235	6.63
337.602	6.79
337.969	6.75
338.335	6.76
338.702	6.94
339.069	7.08
339.435	7.13
339.802	7.2
340.168	7.29
340.535	7.42
340.901	7.32
341.267	7.27
341.634	7.27
342	7.3
342.366	7.37
342.733	7.38
343.099	7.38
343.465	7.46
343.831	7.52
344.197	7.56
344.563	7.53
344.929	7.57
345.295	7.45
345.661	7.42
346.027	7.44
346.393	7.44
346.759	7.48
347.125	7.47
347.491	7.44
347.856	7.37
348.222	7.37
348.588	7.4
348.953	7.44
349.319	7.41
349.684	7.34
350.05	7.39
350.415	7.5
350.781	7.52
351.146	7.55
351.512	7.58
351.877	7.62
352.242	7.64
352.608	7.6
352.973	7.72
353.338	7.73
353.703	7.75
354.068	7.75
354.433	7.73
354.798	7.77
355.164	7.83
355.528	7.94
355.893	7.85
356.258	7.8
356.623	7.81
356.988	7.81
357.353	7.94
357.718	8.02
358.082	8.01
358.447	8.12
358.812	8.09
359.176	8.1
359.541	8.15
359.905	8.22
360.27	8.32
360.634	8.38
360.999	8.45
361.363	8.52
361.728	8.66
362.092	8.7
362.456	8.72
362.821	8.78
363.185	8.8
363.549	8.86
363.913	9.06
364.277	9.16
364.641	9.3
365.005	9.32
365.369	9.39
365.733	9.52
366.097	9.57
366.461	9.65
366.825	9.73
367.189	9.77
367.553	9.83
367.916	9.95
368.28	10.11
368.644	10.23
369.007	10.32
369.371	10.31
369.734	10.43
370.098	10.58
370.461	10.66
370.825	10.71
371.188	10.9
371.552	10.93
371.915	11.01
372.278	11.03
372.642	11.07
373.005	11.12
373.368	11.23
373.731	11.3
374.094	11.36
374.457	11.45
374.82	11.5
375.183	11.58
375.546	11.6
375.909	11.55
376.272	11.63
376.635	11.69
376.998	11.8
377.361	11.82
377.723	11.83
378.086	11.86
378.449	11.9
378.811	11.86
379.174	11.87
379.537	11.85
379.899	11.88
380.262	11.99
380.624	11.98
380.987	11.9
381.349	11.93
381.711	11.94
382.074	11.98
382.436	11.99
382.798	12.05
383.16	12.01
383.522	12
383.884	12
384.247	11.99
384.609	11.99
384.971	12.01
385.333	11.98
385.695	12.01
386.056	12.06
386.418	12.08
386.78	12.12
387.142	12.15
387.504	12.15
387.865	12.09
388.227	12.1
388.589	12.11
388.95	12.1
389.312	12.07
389.673	12.02
390.035	11.99
390.396	11.95
390.758	11.97
391.119	11.99
391.48	11.96
391.842	11.92
392.203	11.87
392.564	11.87
392.925	11.88
393.286	11.89
393.648	11.84
394.009	11.82
394.37	11.82
394.731	11.8
395.092	11.77
395.452	11.75
395.813	11.74
396.174	11.74
396.535	11.74
396.896	11.78
397.257	11.78
397.617	11.8
397.978	11.8
398.338	11.79
398.699	11.8
399.06	11.8
399.42	11.8
399.781	11.83
400.141	11.77
400.501	11.77
400.862	11.74
401.222	11.73
401.582	11.72
401.943	11.66
402.303	11.68
402.663	11.7
403.023	11.7
403.383	11.73
403.743	11.74
404.103	11.74
404.463	11.7
404.823	11.7
405.183	11.69
405.543	11.67
405.903	11.66
406.262	11.65
406.622	11.65
406.982	11.64
407.342	11.6
407.701	11.61
408.061	11.58
408.42	11.57
408.78	11.58
409.139	11.58
409.499	11.62
409.858	11.59
410.217	11.58
410.577	11.55
410.936	11.51
411.295	11.47
411.655	11.44
412.014	11.43
412.373	11.41
412.732	11.42
413.091	11.38
413.45	11.33
413.809	11.29
414.168	11.22
414.527	11.17
414.886	11.15
415.245	11.11
415.603	11.05
415.962	10.99
416.321	10.93
416.679	10.88
417.038	10.79
417.397	10.75
417.755	10.68
418.114	10.65
418.472	10.62
418.831	10.6
419.189	10.57
419.547	10.53
419.906	10.51
420.264	10.47
420.622	10.44
420.981	10.43
421.339	10.39
421.697	10.37
422.055	10.36
422.413	10.35
422.771	10.35
423.129	10.36
423.487	10.37
423.845	10.38
424.203	10.4
424.56	10.43
424.918	10.44
425.276	10.48
425.634	10.5
425.991	10.51
426.349	10.52
426.707	10.55
427.064	10.58
427.422	10.6
427.779	10.63
428.137	10.67
428.494	10.67
428.851	10.73
429.209	10.76
429.566	10.77
429.923	10.76
430.28	10.75
430.637	10.74
430.995	10.72
431.352	10.71
431.709	10.7
432.066	10.69
432.423	10.69
432.78	10.67
433.137	10.66
433.493	10.66
433.85	10.65
434.207	10.62
434.564	10.61
434.92	10.58
435.277	10.57
435.634	10.55
435.99	10.54
436.347	10.53
436.703	10.52
437.06	10.49
437.416	10.48
437.773	10.48
438.129	10.48
438.485	10.48
438.841	10.48
439.198	10.47
439.554	10.47
439.91	10.47
440.266	10.47
440.622	10.45
440.978	10.45
441.334	10.43
441.69	10.44
442.046	10.44
442.402	10.43
442.758	10.43
443.113	10.45
443.469	10.45
443.825	10.45
444.181	10.45
444.536	10.46
444.892	10.46
445.247	10.46
445.603	10.46
445.958	10.46
446.314	10.49
446.669	10.5
447.025	10.51
447.38	10.52
447.735	10.53
448.09	10.56
448.446	10.57
448.801	10.57
449.156	10.57
449.511	10.59
449.866	10.62
450.221	10.63
450.576	10.63
450.931	10.65
451.286	10.67
451.641	10.72
451.995	10.76
452.35	10.79
452.705	10.82
453.06	10.84
453.414	10.87
453.769	10.86
454.123	10.87
454.478	10.86
454.832	10.88
455.187	10.85
455.541	10.81
455.896	10.81
456.25	10.8
456.604	10.79
456.958	10.77
457.313	10.76
457.667	10.75
458.021	10.75
458.375	10.77
458.729	10.79
459.083	10.78
459.437	10.78
459.791	10.8
460.145	10.8
460.499	10.8
460.852	10.81
461.206	10.83
461.56	10.83
461.914	10.85
462.267	10.88
462.621	10.92
462.974	10.98
463.328	11.01
463.681	11.06
464.035	11.07
464.388	11.1
464.742	11.14
465.095	11.17
465.448	11.19
465.801	11.2
466.155	11.21
466.508	11.21
466.861	11.21
467.214	11.2
467.567	11.2
467.92	11.21
468.273	11.22
468.626	11.22
468.979	11.21
469.332	11.2
469.684	11.18
470.037	11.18
470.39	11.16
470.743	11.17
471.095	11.18
471.448	11.23
471.8	11.25
472.153	11.27
472.505	11.28
472.858	11.3
473.21	11.29
473.562	11.3
473.915	11.32
474.267	11.34
474.619	11.34
474.971	11.34
475.324	11.35
475.676	11.35
476.028	11.36
476.38	11.39
476.732	11.39
477.084	11.4
477.436	11.41
477.787	11.43
478.139	11.44
478.491	11.43
478.843	11.41
479.195	11.4
479.546	11.37
479.898	11.35
480.249	11.36
480.601	11.37
480.952	11.38
481.304	11.37
481.655	11.37
482.007	11.37
482.358	11.37
482.709	11.38
483.061	11.39
483.412	11.38
483.763	11.37
484.114	11.37
484.465	11.37
484.816	11.37
485.167	11.37
485.518	11.37
485.869	11.37
486.22	11.38
486.571	11.39
486.922	11.41
487.272	11.43
487.623	11.44
487.974	11.44
488.324	11.44
488.675	11.46
489.025	11.48
489.376	11.49
489.726	11.5
490.077	11.5
490.427	11.51
490.778	11.52
491.128	11.54
491.478	11.57
491.828	11.6
492.179	11.64
492.529	11.67
492.879	11.71
493.229	11.73
493.579	11.75
493.929	11.77
494.279	11.78
494.629	11.8
494.979	11.81
495.328	11.84
495.678	11.9
496.028	11.92
496.378	11.96
496.727	12
497.077	12.05
497.426	12.1
497.776	12.11
498.125	12.14
498.475	12.17
498.824	12.19
499.174	12.21
499.523	12.23
499.872	12.24
500.221	12.27
500.571	12.31
500.92	12.33
501.269	12.36
501.618	12.4
501.967	12.44
502.316	12.47
502.665	12.52
503.014	12.57
503.363	12.59
503.711	12.62
504.06	12.66
504.409	12.67
504.758	12.67
505.106	12.71
505.455	12.72
505.803	12.72
506.152	12.73
506.5	12.73
506.849	12.73
507.197	12.73
507.546	12.74
507.894	12.74
508.242	12.76
508.59	12.77
508.939	12.77
509.287	12.76
509.635	12.79
509.983	12.79
510.331	12.78
510.679	12.79
511.027	12.81
511.375	12.82
511.723	12.84
512.07	12.87
512.418	12.88
512.766	12.91
513.114	12.96
513.461	13
513.809	13.05
514.156	13.07
514.504	13.08
514.851	13.07
515.199	13.08
515.546	13.08
515.893	13.11
516.241	13.14
516.588	13.16
516.935	13.16
517.282	13.19
517.63	13.22
517.977	13.24
518.324	13.25
518.671	13.26
519.018	13.26
519.365	13.27
519.711	13.29
520.058	13.3
520.405	13.3
520.752	13.31
521.099	13.33
521.445	13.36
521.792	13.4
522.138	13.44
522.485	13.47
522.832	13.5
523.178	13.51
523.524	13.52
523.871	13.54
524.217	13.57
524.563	13.56
524.91	13.59
525.256	13.6
525.602	13.62
525.948	13.63
526.294	13.64
526.64	13.64
526.986	13.65
527.332	13.64
527.678	13.65
528.024	13.64
528.37	13.64
528.716	13.65
529.061	13.67
529.407	13.69
529.753	13.7
530.098	13.71
530.444	13.73
530.789	13.76
531.135	13.77
531.48	13.8
531.826	13.83
532.171	13.85
532.516	13.88
532.862	13.9
533.207	13.93
533.552	13.95
533.897	13.99
534.242	14.03
534.587	14.08
534.932	14.1
535.277	14.14
535.622	14.14
535.967	14.17
536.312	14.19
536.657	14.22
537.001	14.28
537.346	14.35
537.691	14.4
538.035	14.44
538.38	14.48
538.724	14.49
539.069	14.5
539.413	14.5
539.758	14.51
540.102	14.54
540.446	14.56
540.791	14.6
541.135	14.62
541.479	14.62
541.823	14.64
542.167	14.66
542.512	14.68
542.856	14.71
543.2	14.72
543.543	14.73
543.887	14.74
544.231	14.76
544.575	14.78
544.919	14.8
545.262	14.82
545.606	14.85
545.95	14.88
546.293	14.91
546.637	14.97
546.98	15.01
547.324	15.02
547.667	15.08
548.011	15.09
548.354	15.1
548.697	15.11
549.04	15.14
549.384	15.15
549.727	15.15
550.07	15.17
550.413	15.19
550.756	15.21
551.099	15.23
551.442	15.25
551.785	15.26
552.128	15.28
552.47	15.28
552.813	15.28
553.156	15.31
553.499	15.31
553.841	15.31
554.184	15.33
554.526	15.36
554.869	15.36
555.211	15.38
555.554	15.39
555.896	15.39
556.238	15.39
556.581	15.38
556.923	15.38
557.265	15.4
557.607	15.4
557.949	15.41
558.291	15.42
558.633	15.42
558.975	15.38
559.317	15.36
559.659	15.36
560.001	15.36
560.343	15.33
560.685	15.32
561.026	15.3
561.368	15.27
561.71	15.25
562.051	15.21
562.393	15.17
562.734	15.16
563.076	15.17
563.417	15.15
563.759	15.15
564.1	15.16
564.441	15.15
564.782	15.13
565.124	15.1
565.465	15.08
565.806	15.06
566.147	15.05
566.488	15.06
566.829	15.04
567.17	15.06
567.511	15.07
567.851	15.07
568.192	15.07
568.533	15.09
568.874	15.09
569.214	15.12
569.555	15.11
569.895	15.1
570.236	15.08
570.576	15.09
570.917	15.1
571.257	15.1
571.598	15.11
571.938	15.08
572.278	15.09
572.618	15.09
572.959	15.1
573.299	15.1
573.639	15.08
573.979	15.09
574.319	15.06
574.659	15.04
574.999	15.03
575.339	15.07
575.678	15.06
576.018	15.03
576.358	15.03
576.698	15.07
577.037	15.1
577.377	15.11
577.716	15.1
578.056	15.09
578.395	15.11
578.735	15.09
579.074	15.1
579.413	15.13
579.753	15.09
580.092	15.05
580.431	15.04
580.77	15.05
581.109	15.02
581.448	15.04
581.787	15.02
582.126	14.99
582.465	14.97
582.804	14.96
583.143	14.96
583.482	14.92
583.82	14.88
584.159	14.85
584.498	14.83
584.836	14.83
585.175	14.78
585.514	14.72
585.852	14.72
586.19	14.72
586.529	14.67
586.867	14.68
587.205	14.7
587.544	14.69
587.882	14.65
588.22	14.63
588.558	14.62
588.896	14.61
589.234	14.59
589.572	14.55
589.91	14.52
590.248	14.48
590.586	14.46
590.924	14.43
591.262	14.42
591.599	14.39
591.937	14.36
592.275	14.37
592.612	14.36
592.95	14.33
593.287	14.33
593.625	14.29
593.962	14.26
594.299	14.23
594.637	14.22
594.974	14.21
595.311	14.19
595.648	14.17
595.985	14.15
596.322	14.13
596.659	14.09
596.996	14.06
597.333	14.04
597.67	14.03
598.007	14
598.344	14
598.681	13.97
599.017	13.93
599.354	13.89
599.691	13.86
600.027	13.81
600.364	13.75
600.7	13.72
601.037	13.69
601.373	13.65
601.71	13.61
602.046	13.58
602.382	13.55
602.718	13.5
603.054	13.49
603.391	13.49
603.727	13.47
604.063	13.46
604.399	13.42
604.735	13.41
605.071	13.38
605.406	13.34
605.742	13.33
606.078	13.32
606.414	13.3
606.749	13.25
607.085	13.22
607.421	13.18
607.756	13.16
608.092	13.09
608.427	13.07
608.762	13.02
609.098	12.96
609.433	12.93
609.768	12.91
610.104	12.84
610.439	12.78
610.774	12.73
611.109	12.66
611.444	12.63
611.779	12.56
612.114	12.53
612.449	12.44
612.784	12.36
613.118	12.32
613.453	12.25
613.788	12.23
614.123	12.21
614.457	12.15
614.792	12.09
615.126	12.09
615.461	12.04
615.795	12.02
616.13	12.01
616.464	11.98
616.798	11.93
617.132	11.89
617.467	11.86
617.801	11.86
618.135	11.87
618.469	11.85
618.803	11.82
619.137	11.81
619.471	11.82
619.805	11.83
620.139	11.8
620.472	11.76
620.806	11.74
621.14	11.73
621.473	11.71
621.807	11.72
622.141	11.65
622.474	11.59
622.808	11.55
623.141	11.53
623.474	11.57
623.808	11.58
624.141	11.58
624.474	11.59
624.807	11.58
625.141	11.56
625.474	11.57
625.807	11.58
626.14	11.59
626.473	11.59
626.806	11.57
627.138	11.56
627.471	11.56
627.804	11.53
628.137	11.52
628.469	11.5
628.802	11.51
629.135	11.52
629.467	11.58
629.8	11.59
630.132	11.56
630.465	11.5
630.797	11.46
631.129	11.42
631.461	11.36
631.794	11.37
632.126	11.33
632.458	11.3
632.79	11.3
633.122	11.27
633.454	11.25
633.786	11.25
634.118	11.23
634.45	11.21
634.781	11.19
635.113	11.15
635.445	11.13
635.777	11.07
636.108	11.02
636.44	10.95
636.771	10.92
637.103	10.91
637.434	10.88
637.765	10.89
638.097	10.93
638.428	10.94
638.759	10.88
639.09	10.91
639.422	10.88
639.753	10.84
640.084	10.77
640.415	10.72
640.746	10.71
641.077	10.73
641.407	10.72
641.738	10.69
642.069	10.68
642.4	10.68
642.73	10.69
643.061	10.7
643.392	10.71
643.722	10.72
644.053	10.73
644.383	10.75
644.713	10.76
645.044	10.71
645.374	10.68
645.704	10.68
646.034	10.65
646.365	10.63
646.695	10.66
647.025	10.76
647.355	10.77
647.685	10.76
648.015	10.73
648.344	10.75
648.674	10.78
649.004	10.78
649.334	10.79
649.663	10.8
649.993	10.83
