Data from Anodorhynchus_glaucus_belly_Reflection_1.txt Node
Date: Wed Mar 10 12:54:55 GMT-03:00 2021
User: Darío
Spectrometer: USB2E3644
Trigger mode: 4
Integration Time (sec): 5.600000E-2
Scans to average: 10
Electric dark correction enabled: true
Nonlinearity correction enabled: false
Boxcar width: 10
XAxis mode: Wavelengths
Number of Pixels in Spectrum: 2048
>>>>>Begin Spectral Data<<<<<
178.315	216.76
178.696	171.76
179.076	164.71
179.457	135.31
179.838	134.65
180.218	120.55
180.599	115.57
180.979	-1600
181.36	103.77
181.74	91.32
182.121	93.79
182.501	99.59
182.881	104.73
183.262	106.84
183.642	114.77
184.022	108.91
184.402	99.79
184.783	105.66
185.163	115.61
185.543	126.47
185.923	131.46
186.303	135.02
186.683	132.51
187.063	129.65
187.443	123.14
187.823	120.52
188.203	121.02
188.583	122.47
188.963	125
189.343	126.67
189.723	126.44
190.102	131.44
190.482	135.99
190.862	137.12
191.242	136.08
191.621	132.88
192.001	134.75
192.38	135.34
192.76	134.27
193.14	133.36
193.519	129.24
193.898	126.38
194.278	127.1
194.657	128.61
195.037	127.39
195.416	128.97
195.795	129.1
196.175	130.03
196.554	128.97
196.933	127.86
197.312	129.87
197.692	131.14
198.071	132.05
198.45	132.73
198.829	131.89
199.208	131.61
199.587	131.6
199.966	134.28
200.345	135.73
200.724	133.59
201.103	132
201.482	131
201.86	134.07
202.239	134.36
202.618	132.64
202.997	135.09
203.375	132.53
203.754	131.56
204.133	126.04
204.511	125.24
204.89	121.74
205.269	116.11
205.647	114.63
206.026	113.61
206.404	111.31
206.782	113.3
207.161	118.1
207.539	121.08
207.918	117.31
208.296	116.6
208.674	117.44
209.052	119.98
209.431	123.11
209.809	118.58
210.187	116.48
210.565	118.54
210.943	124
211.321	130.48
211.699	133.8
212.077	143.14
212.455	148.07
212.833	167.45
213.211	181.95
213.589	191.5
213.967	181.87
214.345	183
214.722	174.74
215.1	173.26
215.478	181.16
215.855	188.81
216.233	195.42
216.611	190.64
216.988	189.34
217.366	196.6
217.743	230.89
218.121	257.75
218.498	292.38
218.876	280.27
219.253	321.4
219.631	382.79
220.008	357.63
220.385	410.15
220.762	367
221.14	415.57
221.517	440
221.894	749.4
222.271	1150.85
222.648	4914.29
223.025	4657.14
223.402	1529.55
223.78	3425
224.157	1086.76
224.533	787.76
224.91	610.16
225.287	514.91
225.664	496.76
226.041	547.03
226.418	528.08
226.795	529.3
227.171	534.45
227.548	560.31
227.925	626.22
228.301	598.84
228.678	743.62
229.055	725
229.431	964.06
229.808	1050.82
230.184	915.71
230.561	882.55
230.937	1343.56
231.313	1605.81
231.69	3397.56
232.066	-6250
232.442	-2106.25
232.819	-1288.35
233.195	-1428.57
233.571	-2530.61
233.947	60500
234.323	3800
234.699	4151.72
235.075	5990
235.451	-31450
235.827	-2540.38
236.203	-1660
236.579	-1138.84
236.955	-616.11
237.331	-454.74
237.707	-317.54
238.083	-234.07
238.459	-178.12
238.834	-149.55
239.21	-120.56
239.586	-107.32
239.961	-94.49
240.337	-86.34
240.713	-79.61
241.088	-75.23
241.464	-71.39
241.839	-69.47
242.215	-61.2
242.59	-52.9
242.965	-45.76
243.341	-35.37
243.716	-26.88
244.091	-19.62
244.467	-16.35
244.842	-15.12
245.217	-14.2
245.592	-13.2
245.967	-12.77
246.343	-14.42
246.718	-15.6
247.093	-16.48
247.468	-17.77
247.843	-17.74
248.218	-17.66
248.593	-17.93
248.967	-17.47
249.342	-16.65
249.717	-15.67
250.092	-15.59
250.467	-15.63
250.841	-15.58
251.216	-17.1
251.591	-19.69
251.965	-21.81
252.34	-24.03
252.714	-25.91
253.089	-28.9
253.463	-31.3
253.838	-31.8
254.212	-28.27
254.587	-25.18
254.961	-21.93
255.335	-17.85
255.71	-15.85
256.084	-13.63
256.458	-11.08
256.832	-9.44
257.206	-8.44
257.581	-7.91
257.955	-7.8
258.329	-7.49
258.703	-7.37
259.077	-7.1
259.451	-6.41
259.825	-6.46
260.199	-6.27
260.572	-5.55
260.946	-5.23
261.32	-5.07
261.694	-4.59
262.068	-4.42
262.441	-4.04
262.815	-4.17
263.189	-4.15
263.562	-3.97
263.936	-3.66
264.309	-3.68
264.683	-3.99
265.056	-4.8
265.43	-5.01
265.803	-5.13
266.176	-5.74
266.55	-5.41
266.923	-4.99
267.296	-5.07
267.67	-4.99
268.043	-5.03
268.416	-4.64
268.789	-4.02
269.162	-3.77
269.535	-3.93
269.908	-3.98
270.281	-4.03
270.654	-4.09
271.027	-4.41
271.4	-4.35
271.773	-4.21
272.146	-4.16
272.519	-4.34
272.891	-4.12
273.264	-3.98
273.637	-3.68
274.01	-3.52
274.382	-3.83
274.755	-4.06
275.127	-4.07
275.5	-4.15
275.872	-3.89
276.245	-4.15
276.617	-4.14
276.99	-4.21
277.362	-4.05
277.734	-3.38
278.107	-3.31
278.479	-3.05
278.851	-2.83
279.223	-2.38
279.596	-2.27
279.968	-2.29
280.34	-1.82
280.712	-1.49
281.084	-1.41
281.456	-1.23
281.828	-0.57
282.2	-0.28
282.572	-0.09
282.944	-0.1
283.315	0.07
283.687	-0.04
284.059	-0.27
284.431	-0.36
284.802	-0.26
285.174	-0.3
285.546	-0.47
285.917	-0.64
286.289	-0.62
286.66	-0.56
287.032	-1
287.403	-1.08
287.775	-1.06
288.146	-0.96
288.518	-0.99
288.889	-1.01
289.26	-0.99
289.632	-1.38
290.003	-1.46
290.374	-1.58
290.745	-1.51
291.116	-1.57
291.487	-1.34
291.858	-0.94
292.229	-0.75
292.6	-0.43
292.971	-0.1
293.342	0.1
293.713	0.61
294.084	0.86
294.455	0.84
294.826	1.06
295.196	1.06
295.567	1.1
295.938	0.9
296.308	1.03
296.679	1.01
297.05	0.82
297.42	0.76
297.791	0.79
298.161	0.89
298.532	0.83
298.902	0.89
299.272	1.03
299.643	1.01
300.013	0.93
300.383	0.77
300.754	0.76
301.124	0.85
301.494	0.78
301.864	0.68
302.234	0.61
302.604	0.54
302.974	0.71
303.344	0.69
303.714	0.78
304.084	0.81
304.454	1.06
304.824	1.36
305.194	1.75
305.563	1.94
305.933	2.12
306.303	2.29
306.673	2.38
307.042	2.46
307.412	2.3
307.781	2.49
308.151	2.66
308.521	2.77
308.89	2.78
309.259	2.83
309.629	2.84
309.998	2.86
310.368	2.96
310.737	2.91
311.106	3.06
311.475	3.2
311.845	3.41
312.214	3.51
312.583	3.55
312.952	3.58
313.321	3.61
313.69	3.62
314.059	3.83
314.428	3.99
314.797	3.9
315.166	4.01
315.535	3.97
315.904	3.82
316.272	3.71
316.641	3.66
317.01	3.71
317.379	3.87
317.747	4.13
318.116	4.34
318.484	4.49
318.853	4.48
319.221	4.54
319.59	4.44
319.958	4.4
320.327	4.4
320.695	4.29
321.063	4.31
321.432	4.11
321.8	4.01
322.168	3.79
322.536	3.87
322.905	3.96
323.273	3.87
323.641	4.09
324.009	4.21
324.377	4.26
324.745	4.21
325.113	4.09
325.481	4.05
325.849	3.98
326.216	3.86
326.584	3.81
326.952	3.85
327.32	3.93
327.687	3.93
328.055	3.99
328.423	4.13
328.79	4.2
329.158	4.32
329.525	4.35
329.893	4.47
330.26	4.47
330.628	4.59
330.995	4.58
331.362	4.5
331.73	4.43
332.097	4.46
332.464	4.51
332.831	4.67
333.199	4.82
333.566	4.87
333.933	5.04
334.3	5.25
334.667	5.16
335.034	5.08
335.401	5.17
335.768	5.16
336.135	5.14
336.502	5.14
336.868	5.22
337.235	5.25
337.602	5.33
337.969	5.37
338.335	5.39
338.702	5.59
339.069	5.66
339.435	5.71
339.802	5.69
340.168	5.73
340.535	5.73
340.901	5.65
341.267	5.65
341.634	5.67
342	5.65
342.366	5.78
342.733	5.9
343.099	5.93
343.465	6.07
343.831	6.13
344.197	6.22
344.563	6.24
344.929	6.27
345.295	6.21
345.661	6.18
346.027	6.16
346.393	6.06
346.759	6.12
347.125	6.08
347.491	6.07
347.856	6.05
348.222	6.03
348.588	6.07
348.953	6.14
349.319	6.15
349.684	6.07
350.05	6.05
350.415	6.05
350.781	6.02
351.146	5.91
351.512	5.92
351.877	5.93
352.242	5.99
352.608	5.98
352.973	6.04
353.338	6.1
353.703	6.21
354.068	6.35
354.433	6.36
354.798	6.39
355.164	6.49
355.528	6.55
355.893	6.56
356.258	6.55
356.623	6.53
356.988	6.51
357.353	6.6
357.718	6.67
358.082	6.68
358.447	6.78
358.812	6.85
359.176	6.94
359.541	7.04
359.905	7.12
360.27	7.18
360.634	7.22
360.999	7.28
361.363	7.31
361.728	7.39
362.092	7.41
362.456	7.42
362.821	7.41
363.185	7.49
363.549	7.58
363.913	7.68
364.277	7.81
364.641	7.89
365.005	7.94
365.369	8
365.733	8.11
366.097	8.12
366.461	8.16
366.825	8.17
367.189	8.2
367.553	8.18
367.916	8.28
368.28	8.45
368.644	8.6
369.007	8.68
369.371	8.67
369.734	8.8
370.098	8.96
370.461	9.05
370.825	9.08
371.188	9.13
371.552	9.22
371.915	9.25
372.278	9.31
372.642	9.37
373.005	9.45
373.368	9.5
373.731	9.57
374.094	9.68
374.457	9.77
374.82	9.81
375.183	9.94
375.546	10.01
375.909	10.05
376.272	10.07
376.635	10.08
376.998	10.13
377.361	10.18
377.723	10.23
378.086	10.25
378.449	10.3
378.811	10.32
379.174	10.33
379.537	10.36
379.899	10.39
380.262	10.52
380.624	10.51
380.987	10.56
381.349	10.64
381.711	10.65
382.074	10.66
382.436	10.73
382.798	10.76
383.16	10.74
383.522	10.71
383.884	10.71
384.247	10.75
384.609	10.83
384.971	10.8
385.333	10.78
385.695	10.83
386.056	10.85
386.418	10.86
386.78	10.91
387.142	10.94
387.504	10.91
387.865	10.84
388.227	10.85
388.589	10.81
388.95	10.79
389.312	10.76
389.673	10.77
390.035	10.72
390.396	10.68
390.758	10.71
391.119	10.71
391.48	10.67
391.842	10.64
392.203	10.6
392.564	10.63
392.925	10.64
393.286	10.64
393.648	10.61
394.009	10.61
394.37	10.58
394.731	10.56
395.092	10.56
395.452	10.59
395.813	10.61
396.174	10.65
396.535	10.65
396.896	10.67
397.257	10.65
397.617	10.66
397.978	10.66
398.338	10.66
398.699	10.68
399.06	10.7
399.42	10.7
399.781	10.68
400.141	10.65
400.501	10.66
400.862	10.67
401.222	10.68
401.582	10.64
401.943	10.62
402.303	10.61
402.663	10.66
403.023	10.63
403.383	10.6
403.743	10.58
404.103	10.57
404.463	10.58
404.823	10.6
405.183	10.58
405.543	10.59
405.903	10.61
406.262	10.61
406.622	10.61
406.982	10.63
407.342	10.65
407.701	10.64
408.061	10.64
408.42	10.61
408.78	10.61
409.139	10.64
409.499	10.63
409.858	10.6
410.217	10.57
410.577	10.58
410.936	10.58
411.295	10.55
411.655	10.54
412.014	10.51
412.373	10.49
412.732	10.47
413.091	10.43
413.45	10.37
413.809	10.3
414.168	10.25
414.527	10.17
414.886	10.12
415.245	10.05
415.603	10
415.962	9.93
416.321	9.9
416.679	9.84
417.038	9.8
417.397	9.75
417.755	9.71
418.114	9.67
418.472	9.63
418.831	9.6
419.189	9.56
419.547	9.52
419.906	9.51
420.264	9.48
420.622	9.45
420.981	9.41
421.339	9.39
421.697	9.37
422.055	9.37
422.413	9.36
422.771	9.38
423.129	9.38
423.487	9.39
423.845	9.4
424.203	9.4
424.56	9.42
424.918	9.44
425.276	9.46
425.634	9.46
425.991	9.49
426.349	9.52
426.707	9.55
427.064	9.58
427.422	9.58
427.779	9.61
428.137	9.66
428.494	9.71
428.851	9.76
429.209	9.79
429.566	9.81
429.923	9.8
430.28	9.78
430.637	9.76
430.995	9.76
431.352	9.75
431.709	9.77
432.066	9.76
432.423	9.76
432.78	9.76
433.137	9.78
433.493	9.77
433.85	9.76
434.207	9.74
434.564	9.74
434.92	9.72
435.277	9.68
435.634	9.66
435.99	9.63
436.347	9.6
436.703	9.59
437.06	9.56
437.416	9.55
437.773	9.55
438.129	9.54
438.485	9.52
438.841	9.49
439.198	9.49
439.554	9.49
439.91	9.49
440.266	9.48
440.622	9.47
440.978	9.45
441.334	9.42
441.69	9.41
442.046	9.37
442.402	9.36
442.758	9.35
443.113	9.34
443.469	9.34
443.825	9.34
444.181	9.33
444.536	9.34
444.892	9.34
445.247	9.34
445.603	9.34
445.958	9.36
446.314	9.39
446.669	9.39
447.025	9.39
447.38	9.4
447.735	9.4
448.09	9.42
448.446	9.44
448.801	9.46
449.156	9.49
449.511	9.52
449.866	9.54
450.221	9.59
450.576	9.61
450.931	9.64
451.286	9.7
451.641	9.72
451.995	9.75
452.35	9.77
452.705	9.81
453.06	9.83
453.414	9.85
453.769	9.83
454.123	9.85
454.478	9.87
454.832	9.87
455.187	9.87
455.541	9.85
455.896	9.83
456.25	9.8
456.604	9.78
456.958	9.76
457.313	9.75
457.667	9.74
458.021	9.73
458.375	9.73
458.729	9.74
459.083	9.75
459.437	9.75
459.791	9.77
460.145	9.78
460.499	9.8
460.852	9.8
461.206	9.81
461.56	9.79
461.914	9.8
462.267	9.82
462.621	9.83
462.974	9.86
463.328	9.89
463.681	9.93
464.035	9.95
464.388	10.01
464.742	10.06
465.095	10.07
465.448	10.1
465.801	10.13
466.155	10.12
466.508	10.13
466.861	10.12
467.214	10.13
467.567	10.13
467.92	10.12
468.273	10.13
468.626	10.14
468.979	10.15
469.332	10.14
469.684	10.14
470.037	10.14
470.39	10.15
470.743	10.16
471.095	10.18
471.448	10.21
471.8	10.21
472.153	10.21
472.505	10.23
472.858	10.23
473.21	10.24
473.562	10.25
473.915	10.24
474.267	10.26
474.619	10.25
474.971	10.24
475.324	10.25
475.676	10.27
476.028	10.27
476.38	10.28
476.732	10.3
477.084	10.31
477.436	10.32
477.787	10.33
478.139	10.33
478.491	10.33
478.843	10.32
479.195	10.31
479.546	10.3
479.898	10.3
480.249	10.29
480.601	10.3
480.952	10.28
481.304	10.27
481.655	10.26
482.007	10.25
482.358	10.26
482.709	10.25
483.061	10.24
483.412	10.24
483.763	10.23
484.114	10.23
484.465	10.22
484.816	10.22
485.167	10.22
485.518	10.22
485.869	10.23
486.22	10.23
486.571	10.24
486.922	10.25
487.272	10.26
487.623	10.28
487.974	10.29
488.324	10.31
488.675	10.33
489.025	10.36
489.376	10.39
489.726	10.4
490.077	10.42
490.427	10.45
490.778	10.46
491.128	10.5
491.478	10.54
491.828	10.59
492.179	10.62
492.529	10.65
492.879	10.69
493.229	10.72
493.579	10.75
493.929	10.76
494.279	10.76
494.629	10.78
494.979	10.8
495.328	10.84
495.678	10.88
496.028	10.93
496.378	10.98
496.727	11.02
497.077	11.06
497.426	11.09
497.776	11.1
498.125	11.13
498.475	11.15
498.824	11.17
499.174	11.19
499.523	11.22
499.872	11.23
500.221	11.25
500.571	11.27
500.92	11.29
501.269	11.34
501.618	11.39
501.967	11.42
502.316	11.44
502.665	11.47
503.014	11.51
503.363	11.54
503.711	11.57
504.06	11.62
504.409	11.64
504.758	11.66
505.106	11.68
505.455	11.71
505.803	11.72
506.152	11.71
506.5	11.72
506.849	11.74
507.197	11.76
507.546	11.78
507.894	11.81
508.242	11.83
508.59	11.85
508.939	11.84
509.287	11.87
509.635	11.89
509.983	11.91
510.331	11.91
510.679	11.94
511.027	11.95
511.375	11.95
511.723	11.98
512.07	12
512.418	12.04
512.766	12.05
513.114	12.08
513.461	12.12
513.809	12.14
514.156	12.16
514.504	12.15
514.851	12.15
515.199	12.17
515.546	12.17
515.893	12.17
516.241	12.2
516.588	12.21
516.935	12.24
517.282	12.25
517.63	12.26
517.977	12.27
518.324	12.27
518.671	12.28
519.018	12.3
519.365	12.33
519.711	12.34
520.058	12.36
520.405	12.38
520.752	12.39
521.099	12.4
521.445	12.44
521.792	12.48
522.138	12.52
522.485	12.54
522.832	12.58
523.178	12.61
523.524	12.63
523.871	12.64
524.217	12.63
524.563	12.64
524.91	12.66
525.256	12.66
525.602	12.68
525.948	12.68
526.294	12.69
526.64	12.69
526.986	12.7
527.332	12.69
527.678	12.69
528.024	12.69
528.37	12.71
528.716	12.71
529.061	12.72
529.407	12.72
529.753	12.73
530.098	12.74
530.444	12.74
530.789	12.76
531.135	12.78
531.48	12.8
531.826	12.82
532.171	12.84
532.516	12.88
532.862	12.9
533.207	12.92
533.552	12.93
533.897	12.95
534.242	12.96
534.587	12.99
534.932	13.02
535.277	13.06
535.622	13.06
535.967	13.07
536.312	13.09
536.657	13.14
537.001	13.17
537.346	13.2
537.691	13.23
538.035	13.23
538.38	13.26
538.724	13.27
539.069	13.28
539.413	13.3
539.758	13.3
540.102	13.32
540.446	13.35
540.791	13.37
541.135	13.39
541.479	13.41
541.823	13.44
542.167	13.46
542.512	13.48
542.856	13.49
543.2	13.51
543.543	13.52
543.887	13.54
544.231	13.57
544.575	13.61
544.919	13.65
545.262	13.7
545.606	13.73
545.95	13.77
546.293	13.81
546.637	13.86
546.98	13.9
547.324	13.94
547.667	13.99
548.011	14.02
548.354	14.05
548.697	14.07
549.04	14.09
549.384	14.09
549.727	14.08
550.07	14.12
550.413	14.16
550.756	14.17
551.099	14.19
551.442	14.22
551.785	14.22
552.128	14.23
552.47	14.25
552.813	14.27
553.156	14.27
553.499	14.27
553.841	14.26
554.184	14.28
554.526	14.28
554.869	14.27
555.211	14.27
555.554	14.27
555.896	14.28
556.238	14.26
556.581	14.27
556.923	14.31
557.265	14.31
557.607	14.33
557.949	14.36
558.291	14.35
558.633	14.32
558.975	14.33
559.317	14.32
559.659	14.28
560.001	14.27
560.343	14.27
560.685	14.28
561.026	14.27
561.368	14.25
561.71	14.27
562.051	14.28
562.393	14.28
562.734	14.26
563.076	14.29
563.417	14.3
563.759	14.3
564.1	14.29
564.441	14.29
564.782	14.26
565.124	14.22
565.465	14.22
565.806	14.24
566.147	14.23
566.488	14.24
566.829	14.27
567.17	14.28
567.511	14.28
567.851	14.31
568.192	14.31
568.533	14.3
568.874	14.3
569.214	14.31
569.555	14.31
569.895	14.32
570.236	14.32
570.576	14.3
570.917	14.31
571.257	14.29
571.598	14.3
571.938	14.3
572.278	14.33
572.618	14.34
572.959	14.35
573.299	14.35
573.639	14.35
573.979	14.35
574.319	14.35
574.659	14.36
574.999	14.34
575.339	14.35
575.678	14.35
576.018	14.34
576.358	14.34
576.698	14.36
577.037	14.37
577.377	14.38
577.716	14.4
578.056	14.39
578.395	14.39
578.735	14.34
579.074	14.34
579.413	14.33
579.753	14.32
580.092	14.25
580.431	14.23
580.77	14.27
581.109	14.25
581.448	14.26
581.787	14.25
582.126	14.25
582.465	14.24
582.804	14.23
583.143	14.25
583.482	14.24
583.82	14.24
584.159	14.24
584.498	14.23
584.836	14.23
585.175	14.25
585.514	14.26
585.852	14.29
586.19	14.28
586.529	14.26
586.867	14.26
587.205	14.28
587.544	14.29
587.882	14.26
588.22	14.24
588.558	14.23
588.896	14.22
589.234	14.2
589.572	14.2
589.91	14.21
590.248	14.19
590.586	14.16
590.924	14.14
591.262	14.14
591.599	14.1
591.937	14.09
592.275	14.06
592.612	14.05
592.95	14.03
593.287	14.02
593.625	14.03
593.962	14
594.299	13.98
594.637	13.98
594.974	13.95
595.311	13.98
595.648	13.95
595.985	13.94
596.322	13.93
596.659	13.91
596.996	13.9
597.333	13.87
597.67	13.87
598.007	13.85
598.344	13.84
598.681	13.85
599.017	13.82
599.354	13.8
599.691	13.78
600.027	13.77
600.364	13.76
600.7	13.71
601.037	13.72
601.373	13.72
601.71	13.68
602.046	13.69
602.382	13.68
602.718	13.64
603.054	13.61
603.391	13.59
603.727	13.58
604.063	13.56
604.399	13.54
604.735	13.53
605.071	13.51
605.406	13.47
605.742	13.46
606.078	13.44
606.414	13.42
606.749	13.39
607.085	13.34
607.421	13.31
607.756	13.28
608.092	13.2
608.427	13.17
608.762	13.15
609.098	13.1
609.433	13.06
609.768	13.06
610.104	13.03
610.439	12.98
610.774	12.93
611.109	12.86
611.444	12.83
611.779	12.78
612.114	12.72
612.449	12.66
612.784	12.59
613.118	12.53
613.453	12.49
613.788	12.46
614.123	12.43
614.457	12.4
614.792	12.37
615.126	12.34
615.461	12.29
615.795	12.24
616.13	12.17
616.464	12.09
616.798	12.04
617.132	11.97
617.467	11.92
617.801	11.91
618.135	11.9
618.469	11.88
618.803	11.84
619.137	11.82
619.471	11.8
619.805	11.79
620.139	11.77
620.472	11.74
620.806	11.72
621.14	11.69
621.473	11.66
621.807	11.62
622.141	11.61
622.474	11.57
622.808	11.53
623.141	11.53
623.474	11.52
623.808	11.5
624.141	11.49
624.474	11.5
624.807	11.44
625.141	11.45
625.474	11.45
625.807	11.43
626.14	11.4
626.473	11.36
626.806	11.33
627.138	11.31
627.471	11.28
627.804	11.24
628.137	11.18
628.469	11.11
628.802	11.09
629.135	11.06
629.467	11.07
629.8	11.06
630.132	11.02
630.465	11
630.797	10.99
631.129	10.94
631.461	10.9
631.794	10.87
632.126	10.79
632.458	10.74
632.79	10.71
633.122	10.69
633.454	10.68
633.786	10.62
634.118	10.58
634.45	10.56
634.781	10.5
635.113	10.48
635.445	10.46
635.777	10.43
636.108	10.39
636.44	10.34
636.771	10.27
637.103	10.25
637.434	10.19
637.765	10.1
638.097	10.09
638.428	10.04
638.759	10.05
639.09	10.03
639.422	9.99
639.753	9.96
640.084	9.93
640.415	9.89
640.746	9.89
641.077	9.88
641.407	9.83
641.738	9.84
642.069	9.84
642.4	9.82
642.73	9.83
643.061	9.81
643.392	9.78
643.722	9.77
644.053	9.74
644.383	9.74
644.713	9.74
645.044	9.74
645.374	9.7
645.704	9.64
646.034	9.63
646.365	9.6
646.695	9.62
647.025	9.63
647.355	9.61
647.685	9.62
648.015	9.6
648.344	9.59
648.674	9.6
649.004	9.6
649.334	9.62
649.663	9.62
649.993	9.63
650.323	9.65
650.652	9.65
650.982	9.63
651.311	9.62
651.64	9.61
651.97	9.62
652.299	9.64
652.628	9.62
652.958	9.62
653.287	9.6
653.616	9.57
653.945	9.51
654.274	9.53
654.603	9.48
654.932	9.45
655.261	9.42
655.589	9.4
