Data from Anodorhynchus_glaucus_45_25_back_Reflection_2.txt Node
Date: Wed Mar 17 16:33:20 GMT-03:00 2021
User: Darío
Spectrometer: USB2E3644
Trigger mode: 4
Integration Time (sec): 2.480000E-1
Scans to average: 10
Electric dark correction enabled: true
Nonlinearity correction enabled: false
Boxcar width: 10
XAxis mode: Wavelengths
Number of Pixels in Spectrum: 2048
>>>>>Begin Spectral Data<<<<<
178.315	51.43
178.696	86.96
179.076	89.97
179.457	100.88
179.838	96.28
180.218	68.77
180.599	68.07
180.979	18.18
181.36	161.76
181.74	144.16
182.121	237.07
182.501	197.25
182.881	187.93
183.262	178.29
183.642	165.87
184.022	156.61
184.402	160.46
184.783	161.46
185.163	157.69
185.543	151.87
185.923	137.7
186.303	136.59
186.683	142.76
187.063	139.57
187.443	143
187.823	143.2
188.203	138.48
188.583	144.05
188.963	145.54
189.343	140.46
189.723	137.89
190.102	135.14
190.482	135.74
190.862	137.15
191.242	137.22
191.621	135.25
192.001	135.2
192.38	131.78
192.76	129.06
193.14	127.63
193.519	126.77
193.898	126.46
194.278	123.69
194.657	122.25
195.037	121.3
195.416	120.51
195.795	119.54
196.175	119.36
196.554	119.34
196.933	120.69
197.312	121.68
197.692	121.8
198.071	120.15
198.45	119.45
198.829	116.89
199.208	116.14
199.587	116.97
199.966	114.24
200.345	114.74
200.724	115.4
201.103	116.2
201.482	114.61
201.86	114.19
202.239	115.18
202.618	116.26
202.997	118.86
203.375	118.85
203.754	119.78
204.133	119.85
204.511	117.71
204.89	117.78
205.269	119.06
205.647	119.81
206.026	119.43
206.404	119.76
206.782	121.06
207.161	121.48
207.539	120.46
207.918	122.99
208.296	122.97
208.674	123.66
209.052	123.71
209.431	127.88
209.809	131.96
210.187	131.67
210.565	136.11
210.943	137.52
211.321	138.84
211.699	137.98
212.077	142.18
212.455	143.9
212.833	143.1
213.211	142.39
213.589	141.98
213.967	141.04
214.345	140.17
214.722	140.85
215.1	138.81
215.478	138.44
215.855	140.04
216.233	142.32
216.611	140.27
216.988	145.58
217.366	147.63
217.743	151.5
218.121	156.91
218.498	150.32
218.876	146.7
219.253	147.09
219.631	150.47
220.008	153.49
220.385	158.84
220.762	163.54
221.14	164.35
221.517	172.72
221.894	181.63
222.271	183.95
222.648	189.67
223.025	194.6
223.402	198.17
223.78	195.27
224.157	195.56
224.533	198.39
224.91	185.96
225.287	178.73
225.664	176.4
226.041	182.05
226.418	197.41
226.795	197.78
227.171	197.12
227.548	196.49
227.925	192.22
228.301	187.21
228.678	185.78
229.055	185.39
229.431	174.93
229.808	174.79
230.184	178.81
230.561	172.59
230.937	173.01
231.313	180.64
231.69	190.2
232.066	196.16
232.442	205.48
232.819	222.1
233.195	237.85
233.571	240.24
233.947	223.52
234.323	206.9
234.699	207.25
235.075	213.59
235.451	211.71
235.827	211.95
236.203	214.74
236.579	217.31
236.955	234.33
237.331	273.65
237.707	315.39
238.083	327.93
238.459	390.14
238.834	617.88
239.21	988.52
239.586	2119.23
239.961	3181.15
240.337	5786.76
240.713	10434.21
241.088	-14182.14
241.464	-11608.82
241.839	-1953.96
242.215	-1120.6
242.59	-771.87
242.965	-420.26
243.341	-212.17
243.716	-155.44
244.091	-117.92
244.467	-98.7
244.842	-91.39
245.217	-89.69
245.592	-88.67
245.967	-83.96
246.343	-80.95
246.718	-81.73
247.093	-84.11
247.468	-85.44
247.843	-84.47
248.218	-81.99
248.593	-79.3
248.967	-78.5
249.342	-75.19
249.717	-72.73
250.092	-72.02
250.467	-73.84
250.841	-78.88
251.216	-93.26
251.591	-104.06
251.965	-119.12
252.34	-132.16
252.714	-138.22
253.089	-135.89
253.463	-133.64
253.838	-131.63
254.212	-125.81
254.587	-115.9
254.961	-105.84
255.335	-92.14
255.71	-79.23
256.084	-63.75
256.458	-52.04
256.832	-42.8
257.206	-37.17
257.581	-35.33
257.955	-33.89
258.329	-32.01
258.703	-29.64
259.077	-27.82
259.451	-26.38
259.825	-25.26
260.199	-25
260.572	-24.41
260.946	-24.96
261.32	-25.47
261.694	-25.82
262.068	-26.03
262.441	-26.12
262.815	-25.98
263.189	-25.76
263.562	-25.85
263.936	-27.84
264.309	-29.47
264.683	-31.17
265.056	-32.74
265.43	-32.71
265.803	-32.45
266.176	-32.51
266.55	-33.18
266.923	-32.78
267.296	-32.75
267.67	-33.01
268.043	-31.22
268.416	-29.63
268.789	-27.68
269.162	-25.17
269.535	-22.9
269.908	-21.31
270.281	-20.73
270.654	-19.9
271.027	-20.36
271.4	-20.74
271.773	-20.55
272.146	-20.42
272.519	-20.79
272.891	-20.96
273.264	-20.56
273.637	-20.15
274.01	-19.54
274.382	-18.94
274.755	-18.99
275.127	-18.97
275.5	-19.2
275.872	-19.78
276.245	-20.56
276.617	-20.75
276.99	-21.81
277.362	-22.32
277.734	-22.14
278.107	-21.7
278.479	-21.82
278.851	-20.83
279.223	-19.41
279.596	-18.18
279.968	-17.61
280.34	-16.75
280.712	-16.26
281.084	-16.13
281.456	-15.68
281.828	-15.16
282.2	-14.37
282.572	-13.34
282.944	-12.57
283.315	-11.96
283.687	-11.91
284.059	-11.36
284.431	-10.91
284.802	-10.49
285.174	-10.23
285.546	-10.15
285.917	-10.18
286.289	-10.19
286.66	-9.86
287.032	-9.98
287.403	-9.96
287.775	-9.98
288.146	-10.37
288.518	-10.54
288.889	-10.72
289.26	-10.64
289.632	-11.04
290.003	-11.31
290.374	-11.64
290.745	-11.93
291.116	-11.99
291.487	-11.52
291.858	-11.21
292.229	-10.92
292.6	-10.56
292.971	-10.26
293.342	-9.92
293.713	-9.45
294.084	-9.13
294.455	-9.31
294.826	-9.38
295.196	-9.53
295.567	-9.64
295.938	-8.95
296.308	-8.65
296.679	-8.05
297.05	-7.81
297.42	-7.24
297.791	-6.83
298.161	-6.82
298.532	-6.6
298.902	-6.49
299.272	-6.73
299.643	-6.97
300.013	-7.37
300.383	-7.46
300.754	-7.49
301.124	-7.59
301.494	-7.81
301.864	-7.82
302.234	-7.66
302.604	-7.49
302.974	-7.37
303.344	-7.35
303.714	-7.89
304.084	-7.83
304.454	-7.83
304.824	-7.8
305.194	-7.88
305.563	-8.13
305.933	-8.14
306.303	-8.06
306.673	-8.05
307.042	-7.49
307.412	-7.02
307.781	-6.66
308.151	-6.48
308.521	-6.47
308.89	-6.41
309.259	-6.1
309.629	-5.92
309.998	-5.7
310.368	-5.49
310.737	-5.43
311.106	-5.15
311.475	-4.85
311.845	-4.82
312.214	-4.99
312.583	-5.08
312.952	-4.96
313.321	-4.79
313.69	-4.29
314.059	-4.02
314.428	-3.64
314.797	-3.67
315.166	-3.84
315.535	-3.78
315.904	-3.69
316.272	-3.51
316.641	-3.49
317.01	-3.45
317.379	-3.16
317.747	-3.16
318.116	-3.02
318.484	-3.03
318.853	-3.07
319.221	-2.91
319.59	-2.71
319.958	-2.75
320.327	-2.45
320.695	-2.07
321.063	-1.9
321.432	-1.97
321.8	-1.94
322.168	-1.78
322.536	-1.68
322.905	-1.72
323.273	-1.83
323.641	-1.74
324.009	-1.67
324.377	-1.64
324.745	-1.63
325.113	-1.85
325.481	-1.83
325.849	-1.77
326.216	-1.56
326.584	-1.48
326.952	-1.49
327.32	-1.43
327.687	-1.21
328.055	-1.31
328.423	-1.49
328.79	-1.38
329.158	-1.25
329.525	-1.26
329.893	-1.3
330.26	-1.32
330.628	-1.11
330.995	-1.03
331.362	-1.17
331.73	-1.26
332.097	-1.14
332.464	-1.02
332.831	-0.67
333.199	-0.41
333.566	-0.16
333.933	-0.13
334.3	0.06
334.667	0.16
335.034	0.39
335.401	0.64
335.768	0.72
336.135	0.81
336.502	0.91
336.868	0.98
337.235	1.2
337.602	1.26
337.969	1.4
338.335	1.5
338.702	1.74
339.069	1.91
339.435	2.02
339.802	2.08
340.168	2.17
340.535	2.12
340.901	2.04
341.267	1.93
341.634	1.92
342	1.91
342.366	1.86
342.733	1.77
343.099	1.77
343.465	1.91
343.831	1.97
344.197	1.94
344.563	1.81
344.929	1.7
345.295	1.75
345.661	1.81
346.027	1.79
346.393	1.78
346.759	1.9
347.125	2.04
347.491	2.13
347.856	2.07
348.222	2.16
348.588	2.23
348.953	2.24
349.319	2.33
349.684	2.39
350.05	2.5
350.415	2.57
350.781	2.62
351.146	2.71
351.512	2.73
351.877	2.77
352.242	2.86
352.608	3.03
352.973	3.1
353.338	3.13
353.703	3.26
354.068	3.28
354.433	3.22
354.798	3.21
355.164	3.2
355.528	3.33
355.893	3.34
356.258	3.34
356.623	3.37
356.988	3.43
357.353	3.43
357.718	3.41
358.082	3.41
358.447	3.42
358.812	3.44
359.176	3.48
359.541	3.46
359.905	3.42
360.27	3.36
360.634	3.39
360.999	3.38
361.363	3.36
361.728	3.48
362.092	3.66
362.456	3.67
362.821	3.76
363.185	3.81
363.549	3.88
363.913	3.92
364.277	3.95
364.641	3.99
365.005	4.09
365.369	4.21
365.733	4.28
366.097	4.36
366.461	4.35
366.825	4.39
367.189	4.46
367.553	4.59
367.916	4.74
368.28	4.81
368.644	4.93
369.007	5.02
369.371	5.06
369.734	5.06
370.098	5.17
370.461	5.26
370.825	5.35
371.188	5.43
371.552	5.58
371.915	5.7
372.278	5.81
372.642	5.89
373.005	5.94
373.368	5.97
373.731	6.03
374.094	6.11
374.457	6.2
374.82	6.3
375.183	6.38
375.546	6.45
375.909	6.54
376.272	6.59
376.635	6.65
376.998	6.71
377.361	6.81
377.723	6.91
378.086	6.96
378.449	7
378.811	7.05
379.174	7.03
379.537	7.04
379.899	7.08
380.262	7.13
380.624	7.18
380.987	7.23
381.349	7.29
381.711	7.35
382.074	7.39
382.436	7.43
382.798	7.64
383.16	7.62
383.522	7.6
383.884	7.61
384.247	7.64
384.609	7.67
384.971	7.67
385.333	7.68
385.695	7.7
386.056	7.7
386.418	7.71
386.78	7.76
387.142	7.77
387.504	7.69
387.865	7.66
388.227	7.68
388.589	7.73
388.95	7.71
389.312	7.7
389.673	7.7
390.035	7.68
390.396	7.53
390.758	7.54
391.119	7.55
391.48	7.57
391.842	7.55
392.203	7.52
392.564	7.51
392.925	7.45
393.286	7.39
393.648	7.36
394.009	7.36
394.37	7.32
394.731	7.35
395.092	7.41
395.452	7.43
395.813	7.45
396.174	7.43
396.535	7.43
396.896	7.41
397.257	7.41
397.617	7.47
397.978	7.52
398.338	7.52
398.699	7.53
399.06	7.55
399.42	7.55
399.781	7.57
400.141	7.56
400.501	7.62
400.862	7.67
401.222	7.68
401.582	7.7
401.943	7.73
402.303	7.75
402.663	7.76
403.023	7.78
403.383	7.77
403.743	7.79
404.103	7.88
404.463	7.97
404.823	8.03
405.183	8
405.543	7.99
405.903	8.01
406.262	8.04
406.622	8.02
406.982	8.04
407.342	8.07
407.701	8.07
408.061	8.07
408.42	8.1
408.78	8.12
409.139	8.13
409.499	8.14
409.858	8.12
410.217	8.12
410.577	8.11
410.936	8.13
411.295	8.08
411.655	8.01
412.014	7.99
412.373	7.94
412.732	7.91
413.091	7.9
413.45	7.87
413.809	7.81
414.168	7.77
414.527	7.71
414.886	7.66
415.245	7.59
415.603	7.57
415.962	7.51
416.321	7.49
416.679	7.45
417.038	7.4
417.397	7.37
417.755	7.32
418.114	7.29
418.472	7.26
418.831	7.25
419.189	7.23
419.547	7.19
419.906	7.17
420.264	7.16
420.622	7.14
420.981	7.14
421.339	7.13
421.697	7.13
422.055	7.15
422.413	7.16
422.771	7.2
423.129	7.19
423.487	7.22
423.845	7.25
424.203	7.26
424.56	7.29
424.918	7.31
425.276	7.35
425.634	7.37
425.991	7.4
426.349	7.43
426.707	7.49
427.064	7.52
427.422	7.55
427.779	7.62
428.137	7.67
428.494	7.73
428.851	7.78
429.209	7.82
429.566	7.84
429.923	7.84
430.28	7.84
430.637	7.91
430.995	7.88
431.352	7.87
431.709	7.89
432.066	7.9
432.423	7.91
432.78	7.96
433.137	7.98
433.493	7.98
433.85	8.05
434.207	7.98
434.564	7.99
434.92	7.99
435.277	7.97
435.634	7.97
435.99	7.94
436.347	7.94
436.703	7.94
437.06	7.93
437.416	7.95
437.773	7.95
438.129	7.9
438.485	7.96
438.841	7.94
439.198	7.95
439.554	7.94
439.91	7.96
440.266	7.94
440.622	7.94
440.978	7.95
441.334	7.91
441.69	7.95
442.046	7.96
442.402	7.95
442.758	7.94
443.113	7.91
443.469	7.93
443.825	7.93
444.181	7.95
444.536	7.99
444.892	8
445.247	8.05
445.603	8.07
445.958	8.06
446.314	8.09
446.669	8.11
447.025	8.12
447.38	8.12
447.735	8.14
448.09	8.15
448.446	8.17
448.801	8.19
449.156	8.22
449.511	8.24
449.866	8.29
450.221	8.35
450.576	8.44
450.931	8.49
451.286	8.54
451.641	8.57
451.995	8.61
452.35	8.66
452.705	8.67
453.06	8.7
453.414	8.73
453.769	8.76
454.123	8.78
454.478	8.82
454.832	8.88
455.187	8.87
455.541	8.89
455.896	8.85
456.25	8.83
456.604	8.84
456.958	8.86
457.313	8.84
457.667	8.86
458.021	8.87
458.375	8.88
458.729	8.92
459.083	8.94
459.437	8.95
459.791	8.94
460.145	8.97
460.499	8.97
460.852	8.97
461.206	9.01
461.56	9.02
461.914	9.03
462.267	9.01
462.621	9.05
462.974	9.08
463.328	9.16
463.681	9.2
464.035	9.25
464.388	9.29
464.742	9.36
465.095	9.4
465.448	9.45
465.801	9.45
466.155	9.44
466.508	9.49
466.861	9.5
467.214	9.53
467.567	9.54
467.92	9.57
468.273	9.58
468.626	9.58
468.979	9.61
469.332	9.62
469.684	9.65
470.037	9.69
470.39	9.69
470.743	9.73
471.095	9.76
471.448	9.78
471.8	9.78
472.153	9.8
472.505	9.8
472.858	9.82
473.21	9.86
473.562	9.89
473.915	9.88
474.267	9.88
474.619	9.91
474.971	9.94
475.324	9.95
475.676	10.03
476.028	10.02
476.38	10
476.732	10.02
477.084	10.03
477.436	10.02
477.787	10.03
478.139	10.05
478.491	10.1
478.843	10.1
479.195	10.15
479.546	10.12
479.898	10.12
480.249	10.11
480.601	10.08
480.952	10.06
481.304	10.06
481.655	10.08
482.007	10.07
482.358	10.07
482.709	10.09
483.061	10.06
483.412	10.07
483.763	10.08
484.114	10.1
484.465	10.12
484.816	10.13
485.167	10.15
485.518	10.15
485.869	10.15
486.22	10.16
486.571	10.17
486.922	10.21
487.272	10.22
487.623	10.25
487.974	10.31
488.324	10.35
488.675	10.39
489.025	10.4
489.376	10.42
489.726	10.45
490.077	10.48
490.427	10.52
490.778	10.55
491.128	10.59
491.478	10.63
491.828	10.69
492.179	10.73
492.529	10.77
492.879	10.82
493.229	10.87
493.579	10.89
493.929	10.89
494.279	10.94
494.629	10.97
494.979	11.03
495.328	11.08
495.678	11.16
496.028	11.22
496.378	11.29
496.727	11.35
497.077	11.4
497.426	11.47
497.776	11.46
498.125	11.52
498.475	11.53
498.824	11.56
499.174	11.55
499.523	11.58
499.872	11.6
500.221	11.61
500.571	11.64
500.92	11.69
501.269	11.74
501.618	11.75
501.967	11.78
502.316	11.8
502.665	11.85
503.014	11.88
503.363	11.93
503.711	11.95
504.06	11.97
504.409	12
504.758	11.97
505.106	12.02
505.455	12.05
505.803	12.09
506.152	12.05
506.5	12.06
506.849	12.07
507.197	12.1
507.546	12.12
507.894	12.14
508.242	12.14
508.59	12.14
508.939	12.16
509.287	12.17
509.635	12.16
509.983	12.15
510.331	12.15
510.679	12.15
511.027	12.17
511.375	12.19
511.723	12.2
512.07	12.23
512.418	12.26
512.766	12.26
513.114	12.27
513.461	12.3
513.809	12.32
514.156	12.32
514.504	12.34
514.851	12.36
515.199	12.35
515.546	12.35
515.893	12.36
516.241	12.36
516.588	12.38
516.935	12.44
517.282	12.46
517.63	12.49
517.977	12.51
518.324	12.52
518.671	12.53
519.018	12.55
519.365	12.57
519.711	12.59
520.058	12.62
520.405	12.6
520.752	12.61
521.099	12.63
521.445	12.68
521.792	12.68
522.138	12.67
522.485	12.66
522.832	12.71
523.178	12.72
523.524	12.72
523.871	12.72
524.217	12.69
524.563	12.66
524.91	12.63
525.256	12.61
525.602	12.59
525.948	12.57
526.294	12.55
526.64	12.52
526.986	12.51
527.332	12.49
527.678	12.48
528.024	12.49
528.37	12.51
528.716	12.48
529.061	12.49
529.407	12.49
529.753	12.5
530.098	12.48
530.444	12.48
530.789	12.49
531.135	12.49
531.48	12.49
531.826	12.5
532.171	12.51
532.516	12.52
532.862	12.51
533.207	12.51
533.552	12.52
533.897	12.52
534.242	12.53
534.587	12.55
534.932	12.59
535.277	12.57
535.622	12.55
535.967	12.58
536.312	12.57
536.657	12.58
537.001	12.59
537.346	12.58
537.691	12.56
538.035	12.52
538.38	12.48
538.724	12.45
539.069	12.43
539.413	12.41
539.758	12.38
540.102	12.42
540.446	12.4
540.791	12.4
541.135	12.39
541.479	12.38
541.823	12.37
542.167	12.35
542.512	12.38
542.856	12.34
543.2	12.3
543.543	12.29
543.887	12.27
544.231	12.27
544.575	12.27
544.919	12.28
545.262	12.32
545.606	12.35
545.95	12.38
546.293	12.39
546.637	12.39
546.98	12.45
547.324	12.41
547.667	12.47
548.011	12.42
548.354	12.42
548.697	12.41
549.04	12.39
549.384	12.38
549.727	12.32
550.07	12.36
550.413	12.36
550.756	12.36
551.099	12.37
551.442	12.34
551.785	12.35
552.128	12.29
552.47	12.2
552.813	12.16
553.156	12.11
553.499	12.05
553.841	12.03
554.184	11.97
554.526	11.93
554.869	11.81
555.211	11.82
555.554	11.78
555.896	11.73
556.238	11.66
556.581	11.59
556.923	11.55
557.265	11.49
557.607	11.43
557.949	11.42
558.291	11.35
558.633	11.28
558.975	11.2
559.317	11.15
559.659	11.11
560.001	11.08
560.343	11.03
560.685	10.97
561.026	10.91
561.368	10.85
561.71	10.8
562.051	10.78
562.393	10.78
562.734	10.69
563.076	10.64
563.417	10.57
563.759	10.55
564.1	10.48
564.441	10.46
564.782	10.4
565.124	10.32
565.465	10.27
565.806	10.21
566.147	10.18
566.488	10.14
566.829	10.12
567.17	10.08
567.511	10.04
567.851	10.04
568.192	9.99
568.533	9.93
568.874	9.92
569.214	9.87
569.555	9.76
569.895	9.73
570.236	9.71
570.576	9.68
570.917	9.61
571.257	9.59
571.598	9.5
571.938	9.48
572.278	9.44
572.618	9.4
572.959	9.37
573.299	9.31
573.639	9.25
573.979	9.19
574.319	9.13
574.659	9.1
574.999	9
575.339	8.95
575.678	8.89
576.018	8.79
576.358	8.72
576.698	8.69
577.037	8.65
577.377	8.59
577.716	8.55
578.056	8.52
578.395	8.45
578.735	8.4
579.074	8.32
579.413	8.24
579.753	8.2
580.092	8.18
580.431	8.14
580.77	8.12
581.109	8.09
581.448	8.06
581.787	8.01
582.126	8
582.465	7.97
582.804	7.95
583.143	7.94
583.482	7.88
583.82	7.79
584.159	7.76
584.498	7.7
584.836	7.65
585.175	7.59
585.514	7.55
585.852	7.5
586.19	7.47
586.529	7.42
586.867	7.38
587.205	7.31
587.544	7.28
587.882	7.2
588.22	7.13
588.558	7.1
588.896	7.07
589.234	7.01
589.572	6.97
589.91	6.93
590.248	6.86
590.586	6.88
590.924	6.87
591.262	6.83
591.599	6.81
591.937	6.78
592.275	6.74
592.612	6.72
592.95	6.69
593.287	6.69
593.625	6.65
593.962	6.61
594.299	6.59
594.637	6.55
594.974	6.53
595.311	6.52
595.648	6.49
595.985	6.45
596.322	6.43
596.659	6.4
596.996	6.35
597.333	6.31
597.67	6.24
598.007	6.21
598.344	6.18
598.681	6.19
599.017	6.13
599.354	6.1
599.691	6.09
600.027	6.09
600.364	6
600.7	5.99
601.037	5.96
601.373	5.93
601.71	5.9
602.046	5.92
602.382	5.88
602.718	5.87
603.054	5.84
603.391	5.82
603.727	5.79
604.063	5.79
604.399	5.77
604.735	5.77
605.071	5.73
605.406	5.68
605.742	5.62
606.078	5.62
606.414	5.58
606.749	5.53
607.085	5.48
607.421	5.46
607.756	5.44
608.092	5.39
608.427	5.35
608.762	5.32
609.098	5.25
609.433	5.21
609.768	5.15
610.104	5.13
610.439	5.07
610.774	5.03
611.109	4.97
611.444	4.95
611.779	4.91
612.114	4.87
612.449	4.86
612.784	4.82
613.118	4.78
613.453	4.77
613.788	4.71
614.123	4.67
614.457	4.62
614.792	4.6
615.126	4.58
615.461	4.53
615.795	4.48
616.13	4.44
616.464	4.42
616.798	4.38
617.132	4.32
617.467	4.31
617.801	4.29
618.135	4.33
618.469	4.29
618.803	4.25
619.137	4.26
619.471	4.26
619.805	4.24
620.139	4.2
620.472	4.19
620.806	4.2
621.14	4.2
621.473	4.22
621.807	4.16
622.141	4.12
622.474	4.09
622.808	4.08
623.141	4.06
623.474	4
623.808	4
624.141	4.03
624.474	4.06
624.807	4.04
625.141	4
625.474	4.03
625.807	4.05
626.14	4.03
626.473	4.03
626.806	4.04
627.138	4.03
627.471	3.96
627.804	3.93
628.137	3.9
628.469	3.86
628.802	3.85
629.135	3.85
629.467	3.87
629.8	3.86
630.132	3.86
630.465	3.88
630.797	3.89
631.129	3.84
631.461	3.81
631.794	3.83
632.126	3.81
632.458	3.79
632.79	3.77
633.122	3.76
633.454	3.71
633.786	3.64
634.118	3.6
634.45	3.64
634.781	3.62
635.113	3.56
635.445	3.52
635.777	3.47
636.108	3.44
636.44	3.43
636.771	3.45
637.103	3.46
637.434	3.43
637.765	3.41
638.097	3.43
638.428	3.39
638.759	3.31
639.09	3.27
639.422	3.23
639.753	3.2
640.084	3.17
640.415	3.19
640.746	3.24
641.077	3.25
641.407	3.23
641.738	3.22
642.069	3.25
642.4	3.3
642.73	3.33
643.061	3.33
643.392	3.31
643.722	3.24
644.053	3.19
644.383	3.17
644.713	3.18
645.044	3.12
645.374	3.09
645.704	3.08
646.034	3.07
646.365	3.08
646.695	3.11
647.025	3.12
647.355	3.11
647.685	3.04
648.015	3.03
648.344	3.04
648.674	3.04
649.004	3
649.334	2.97
649.663	2.97
649.993	2.95
650.323	2.92
650.652	2.92
650.982	2.96
651.311	2.91
651.64	2.85
651.97	2.86
652.299	2.89
652.628	2.9
652.958	2.94
653.287	2.95
653.616	2.91
653.945	2.88
654.274	2.88
654.603	2.9
654.932	2.87
655.261	2.88
655.589	2.88
655.918	2.88
656.247	2.9
656.576	2.91
656.904	2.94
657.233	2.97
657.561	2.99
657.89	2.97
658.218	3.02
658.547	3.03
