Data from Anodorhynchus_glaucus_45_25_rump_Reflection_3.txt Node
Date: Wed Mar 17 16:35:19 GMT-03:00 2021
User: Darío
Spectrometer: USB2E3644
Trigger mode: 4
Integration Time (sec): 2.480000E-1
Scans to average: 10
Electric dark correction enabled: true
Nonlinearity correction enabled: false
Boxcar width: 10
XAxis mode: Wavelengths
Number of Pixels in Spectrum: 2048
>>>>>Begin Spectral Data<<<<<
178.315	25.21
178.696	43.75
179.076	68.37
179.457	112.95
179.838	133.15
180.218	204.46
180.599	174.61
180.979	30.77
181.36	121.36
181.74	118.41
182.121	104.6
182.501	100
182.881	107.2
183.262	115.49
183.642	124.06
184.022	128.83
184.402	136.45
184.783	137.89
185.163	136.38
185.543	136.38
185.923	129.87
186.303	132.64
186.683	137.78
187.063	135.47
187.443	142.25
187.823	142.2
188.203	134.93
188.583	129.6
188.963	125.21
189.343	124.55
189.723	121.64
190.102	120.42
190.482	120.94
190.862	118.11
191.242	114.19
191.621	107.31
192.001	103.89
192.38	103.15
192.76	103.07
193.14	103.08
193.519	106
193.898	107.1
194.278	107.53
194.657	106.63
195.037	106.28
195.416	106.14
195.795	104.77
196.175	107.95
196.554	108.6
196.933	109.9
197.312	111.34
197.692	111.91
198.071	112.78
198.45	113.4
198.829	115.18
199.208	115.94
199.587	118.76
199.966	117.02
200.345	114.35
200.724	114.23
201.103	113.14
201.482	111.28
201.86	110.35
202.239	110.44
202.618	111.05
202.997	111.46
203.375	111.65
203.754	115.59
204.133	116.46
204.511	116.76
204.89	115.92
205.269	112.48
205.647	112.21
206.026	111.54
206.404	110.28
206.782	108.59
207.161	108.33
207.539	109.09
207.918	111.93
208.296	114.96
208.674	115.79
209.052	114.91
209.431	114.61
209.809	114.54
210.187	112.73
210.565	114.88
210.943	116.75
211.321	117.65
211.699	114.82
212.077	112.85
212.455	112.03
212.833	110.3
213.211	114.64
213.589	119.35
213.967	124.41
214.345	129.01
214.722	132.25
215.1	131.01
215.478	126.66
215.855	120.78
216.233	117.52
216.611	114.21
216.988	116.5
217.366	115.87
217.743	114.17
218.121	115.47
218.498	111.13
218.876	104.2
219.253	102.84
219.631	103.6
220.008	102.6
220.385	100.23
220.762	101.92
221.14	100.24
221.517	96.16
221.894	96.68
222.271	97.59
222.648	100.43
223.025	102.31
223.402	101.69
223.78	105.72
224.157	105.75
224.533	105.14
224.91	105.02
225.287	107.69
225.664	112.18
226.041	116.37
226.418	122.45
226.795	128.71
227.171	131.07
227.548	133.32
227.925	133.58
228.301	135.5
228.678	138.37
229.055	139.74
229.431	142.4
229.808	140.26
230.184	140.03
230.561	139.89
230.937	137.85
231.313	139.26
231.69	137.68
232.066	139.3
232.442	141.71
232.819	144.19
233.195	144.78
233.571	142.91
233.947	137.6
234.323	132.09
234.699	130.69
235.075	126.28
235.451	125.6
235.827	129.45
236.203	133.39
236.579	134.36
236.955	138.21
237.331	140.66
237.707	150.55
238.083	163.8
238.459	185.87
238.834	234.12
239.21	287.27
239.586	364.46
239.961	433.9
240.337	505.31
240.713	573.53
241.088	630.33
241.464	742.08
241.839	1013.67
242.215	3828.16
242.59	-1526.62
242.965	-579.1
243.341	-261.24
243.716	-176.86
244.091	-129.37
244.467	-109.92
244.842	-101.43
245.217	-96.62
245.592	-92.29
245.967	-86.82
246.343	-83.65
246.718	-83.59
247.093	-84.64
247.468	-82.17
247.843	-77.79
248.218	-73.87
248.593	-71
248.967	-69.57
249.342	-67.5
249.717	-64.33
250.092	-63.71
250.467	-64.99
250.841	-67.07
251.216	-78.19
251.591	-89.96
251.965	-103.43
252.34	-114.85
252.714	-121.74
253.089	-124.03
253.463	-125.73
253.838	-126.92
254.212	-118.2
254.587	-107
254.961	-92.57
255.335	-78.8
255.71	-68.4
256.084	-53.75
256.458	-43.95
256.832	-35.97
257.206	-30.37
257.581	-28.58
257.955	-26.62
258.329	-24.46
258.703	-22.11
259.077	-20.9
259.451	-19.46
259.825	-17.52
260.199	-16.08
260.572	-15.55
260.946	-15.48
261.32	-15.1
261.694	-15.23
262.068	-15
262.441	-14.76
262.815	-14.69
263.189	-14.69
263.562	-13.89
263.936	-15.26
264.309	-15.98
264.683	-17.13
265.056	-18.6
265.43	-19.34
265.803	-19.83
266.176	-21.16
266.55	-22.18
266.923	-21.51
267.296	-21.15
267.67	-21.57
268.043	-20.99
268.416	-20.86
268.789	-19.99
269.162	-18.17
269.535	-16.16
269.908	-15.35
270.281	-15.52
270.654	-15.28
271.027	-15.52
271.4	-16.18
271.773	-15.95
272.146	-15.15
272.519	-14.95
272.891	-14.57
273.264	-13.57
273.637	-12.86
274.01	-11.86
274.382	-11.39
274.755	-11.44
275.127	-11.6
275.5	-11.9
275.872	-12.22
276.245	-11.96
276.617	-11.83
276.99	-12.84
277.362	-13.22
277.734	-13.4
278.107	-13.04
278.479	-13.21
278.851	-13.28
279.223	-12.62
279.596	-12.27
279.968	-12.81
280.34	-12.77
280.712	-12.87
281.084	-12.82
281.456	-12.28
281.828	-11.94
282.2	-11.52
282.572	-10.84
282.944	-10.44
283.315	-10.53
283.687	-10.44
284.059	-9.64
284.431	-9.19
284.802	-8.62
285.174	-8.77
285.546	-8.82
285.917	-8.75
286.289	-8.62
286.66	-8.04
287.032	-7.8
287.403	-7.51
287.775	-7.35
288.146	-7.53
288.518	-7.68
288.889	-7.95
289.26	-8.22
289.632	-8.46
290.003	-8.46
290.374	-8.83
290.745	-8.92
291.116	-8.68
291.487	-8.49
291.858	-8.83
292.229	-8.83
292.6	-8.49
292.971	-8.04
293.342	-7.45
293.713	-6.94
294.084	-6.25
294.455	-6.24
294.826	-6.42
295.196	-6.6
295.567	-6.58
295.938	-5.95
296.308	-5.52
296.679	-5.15
297.05	-5.09
297.42	-4.96
297.791	-4.85
298.161	-4.57
298.532	-4.28
298.902	-4.1
299.272	-4.04
299.643	-4.29
300.013	-4.56
300.383	-4.83
300.754	-5.04
301.124	-4.95
301.494	-5.05
301.864	-5.32
302.234	-5.14
302.604	-4.87
302.974	-4.48
303.344	-4.55
303.714	-4.94
304.084	-5
304.454	-4.78
304.824	-4.55
305.194	-3.99
305.563	-3.76
305.933	-3.44
306.303	-3.16
306.673	-3.08
307.042	-2.76
307.412	-2.24
307.781	-1.73
308.151	-1.36
308.521	-1.08
308.89	-1.15
309.259	-1.15
309.629	-1.01
309.998	-0.85
310.368	-0.72
310.737	-0.67
311.106	-0.46
311.475	-0.18
311.845	-0.06
312.214	-0.13
312.583	-0.09
312.952	-0.23
313.321	-0.22
313.69	-0.2
314.059	-0.39
314.428	-0.16
314.797	-0.28
315.166	-0.42
315.535	-0.35
315.904	-0.36
316.272	-0.33
316.641	-0.19
317.01	-0.08
317.379	-0
317.747	-0.18
318.116	-0.1
318.484	-0.13
318.853	-0.14
319.221	-0.11
319.59	0.04
319.958	0.21
320.327	0.51
320.695	0.72
321.063	0.66
321.432	0.57
321.8	0.76
322.168	0.81
322.536	1.11
322.905	1.35
323.273	1.38
323.641	1.37
324.009	1.41
324.377	1.57
324.745	1.79
325.113	1.83
325.481	2.02
325.849	2.05
326.216	2.13
326.584	2.18
326.952	2.19
327.32	2.17
327.687	2.15
328.055	2.05
328.423	1.89
328.79	1.88
329.158	2.04
329.525	2.02
329.893	1.89
330.26	1.59
330.628	1.52
330.995	1.44
331.362	1.44
331.73	1.51
332.097	1.42
332.464	1.4
332.831	1.52
333.199	1.62
333.566	1.78
333.933	1.81
334.3	1.96
334.667	2.04
335.034	2.18
335.401	2.31
335.768	2.37
336.135	2.56
336.502	2.73
336.868	2.81
337.235	2.94
337.602	3.18
337.969	3.28
338.335	3.28
338.702	3.4
339.069	3.44
339.435	3.47
339.802	3.6
340.168	3.64
340.535	3.65
340.901	3.61
341.267	3.6
341.634	3.67
342	3.68
342.366	3.66
342.733	3.68
343.099	3.83
343.465	3.91
343.831	3.96
344.197	3.98
344.563	3.92
344.929	3.87
345.295	3.82
345.661	3.93
346.027	4.01
346.393	4.04
346.759	4.16
347.125	4.25
347.491	4.24
347.856	4.28
348.222	4.29
348.588	4.36
348.953	4.41
349.319	4.45
349.684	4.46
350.05	4.5
350.415	4.53
350.781	4.51
351.146	4.53
351.512	4.46
351.877	4.51
352.242	4.61
352.608	4.78
352.973	4.86
353.338	4.93
353.703	4.98
354.068	5
354.433	4.94
354.798	4.95
355.164	4.95
355.528	5
355.893	4.97
356.258	4.95
356.623	4.89
356.988	4.85
357.353	4.86
357.718	4.93
358.082	4.9
358.447	4.85
358.812	4.81
359.176	4.93
359.541	4.96
359.905	4.88
360.27	4.81
360.634	4.79
360.999	4.81
361.363	4.8
361.728	4.89
362.092	4.97
362.456	4.96
362.821	5.1
363.185	5.15
363.549	5.24
363.913	5.32
364.277	5.38
364.641	5.43
365.005	5.46
365.369	5.47
365.733	5.55
366.097	5.66
366.461	5.77
366.825	5.77
367.189	5.85
367.553	5.98
367.916	6.18
368.28	6.32
368.644	6.37
369.007	6.5
369.371	6.58
369.734	6.71
370.098	6.83
370.461	6.84
370.825	6.88
371.188	6.93
371.552	7.05
371.915	7.16
372.278	7.33
372.642	7.46
373.005	7.53
373.368	7.52
373.731	7.51
374.094	7.56
374.457	7.61
374.82	7.63
375.183	7.67
375.546	7.67
375.909	7.7
376.272	7.76
376.635	7.8
376.998	7.82
377.361	7.88
377.723	7.95
378.086	8.01
378.449	8.11
378.811	8.16
379.174	8.1
379.537	8.08
379.899	8.07
380.262	8.14
380.624	8.23
380.987	8.34
381.349	8.4
381.711	8.46
382.074	8.51
382.436	8.56
382.798	8.78
383.16	8.78
383.522	8.77
383.884	8.74
384.247	8.77
384.609	8.78
384.971	8.8
385.333	8.78
385.695	8.8
386.056	8.77
386.418	8.78
386.78	8.89
387.142	8.91
387.504	8.86
387.865	8.86
388.227	8.87
388.589	8.91
388.95	8.92
389.312	8.91
389.673	8.92
390.035	8.92
390.396	8.78
390.758	8.77
391.119	8.77
391.48	8.79
391.842	8.78
392.203	8.74
392.564	8.74
392.925	8.73
393.286	8.68
393.648	8.67
394.009	8.69
394.37	8.63
394.731	8.67
395.092	8.7
395.452	8.7
395.813	8.68
396.174	8.64
396.535	8.65
396.896	8.63
397.257	8.63
397.617	8.67
397.978	8.73
398.338	8.74
398.699	8.78
399.06	8.85
399.42	8.82
399.781	8.88
400.141	8.87
400.501	8.88
400.862	8.93
401.222	8.89
401.582	8.88
401.943	8.9
402.303	8.9
402.663	8.91
403.023	8.94
403.383	8.95
403.743	8.98
404.103	9.01
404.463	9.08
404.823	9.12
405.183	9.09
405.543	9.05
405.903	9.07
406.262	9.04
406.622	9.01
406.982	9.03
407.342	9.03
407.701	9.03
408.061	8.99
408.42	9.03
408.78	9.06
409.139	9.06
409.499	9.08
409.858	9.09
410.217	9.1
410.577	9.04
410.936	9.06
411.295	9.04
411.655	8.99
412.014	8.94
412.373	8.9
412.732	8.88
413.091	8.87
413.45	8.85
413.809	8.83
414.168	8.81
414.527	8.77
414.886	8.69
415.245	8.64
415.603	8.63
415.962	8.57
416.321	8.54
416.679	8.51
417.038	8.45
417.397	8.4
417.755	8.36
418.114	8.33
418.472	8.29
418.831	8.27
419.189	8.26
419.547	8.22
419.906	8.18
420.264	8.16
420.622	8.13
420.981	8.12
421.339	8.11
421.697	8.1
422.055	8.11
422.413	8.13
422.771	8.13
423.129	8.13
423.487	8.15
423.845	8.17
424.203	8.19
424.56	8.23
424.918	8.25
425.276	8.28
425.634	8.31
425.991	8.35
426.349	8.38
426.707	8.43
427.064	8.48
427.422	8.54
427.779	8.59
428.137	8.66
428.494	8.72
428.851	8.79
429.209	8.82
429.566	8.8
429.923	8.81
430.28	8.84
430.637	8.88
430.995	8.85
431.352	8.87
431.709	8.85
432.066	8.84
432.423	8.84
432.78	8.86
433.137	8.88
433.493	8.88
433.85	8.93
434.207	8.85
434.564	8.83
434.92	8.81
435.277	8.8
435.634	8.77
435.99	8.75
436.347	8.72
436.703	8.71
437.06	8.72
437.416	8.73
437.773	8.7
438.129	8.66
438.485	8.7
438.841	8.66
439.198	8.67
439.554	8.67
439.91	8.68
440.266	8.66
440.622	8.65
440.978	8.64
441.334	8.6
441.69	8.62
442.046	8.63
442.402	8.64
442.758	8.61
443.113	8.6
443.469	8.59
443.825	8.59
444.181	8.6
444.536	8.61
444.892	8.62
445.247	8.65
445.603	8.7
445.958	8.7
446.314	8.73
446.669	8.73
447.025	8.75
447.38	8.77
447.735	8.79
448.09	8.79
448.446	8.82
448.801	8.83
449.156	8.86
449.511	8.9
449.866	8.93
450.221	8.99
450.576	9.05
450.931	9.13
451.286	9.19
451.641	9.24
451.995	9.3
452.35	9.33
452.705	9.34
453.06	9.34
453.414	9.38
453.769	9.38
454.123	9.39
454.478	9.39
454.832	9.41
455.187	9.39
455.541	9.42
455.896	9.4
456.25	9.38
456.604	9.35
456.958	9.35
457.313	9.35
457.667	9.35
458.021	9.34
458.375	9.36
458.729	9.38
459.083	9.39
459.437	9.41
459.791	9.4
460.145	9.44
460.499	9.44
460.852	9.44
461.206	9.48
461.56	9.51
461.914	9.52
462.267	9.51
462.621	9.55
462.974	9.56
463.328	9.62
463.681	9.67
464.035	9.73
464.388	9.76
464.742	9.8
465.095	9.86
465.448	9.91
465.801	9.89
466.155	9.9
466.508	9.92
466.861	9.9
467.214	9.93
467.567	9.92
467.92	9.94
468.273	9.93
468.626	9.94
468.979	9.96
469.332	9.96
469.684	9.98
470.037	10
470.39	10.01
470.743	10.02
471.095	10.04
471.448	10.08
471.8	10.08
472.153	10.11
472.505	10.12
472.858	10.12
473.21	10.16
473.562	10.18
473.915	10.18
474.267	10.19
474.619	10.19
474.971	10.2
475.324	10.22
475.676	10.31
476.028	10.28
476.38	10.28
476.732	10.3
477.084	10.31
477.436	10.34
477.787	10.35
478.139	10.37
478.491	10.38
478.843	10.35
479.195	10.38
479.546	10.35
479.898	10.33
480.249	10.32
480.601	10.29
480.952	10.28
481.304	10.27
481.655	10.29
482.007	10.3
482.358	10.31
482.709	10.31
483.061	10.28
483.412	10.29
483.763	10.29
484.114	10.31
484.465	10.31
484.816	10.31
485.167	10.31
485.518	10.31
485.869	10.31
486.22	10.32
486.571	10.33
486.922	10.35
487.272	10.36
487.623	10.37
487.974	10.4
488.324	10.42
488.675	10.45
489.025	10.47
489.376	10.48
489.726	10.5
490.077	10.53
490.427	10.55
490.778	10.58
491.128	10.61
491.478	10.63
491.828	10.69
492.179	10.71
492.529	10.74
492.879	10.8
493.229	10.82
493.579	10.86
493.929	10.88
494.279	10.92
494.629	10.94
494.979	11.01
495.328	11.07
495.678	11.13
496.028	11.19
496.378	11.24
496.727	11.29
497.077	11.33
497.426	11.38
497.776	11.37
498.125	11.41
498.475	11.43
498.824	11.46
499.174	11.43
499.523	11.46
499.872	11.47
500.221	11.51
500.571	11.55
500.92	11.59
501.269	11.61
501.618	11.61
501.967	11.64
502.316	11.65
502.665	11.67
503.014	11.7
503.363	11.72
503.711	11.73
504.06	11.74
504.409	11.75
504.758	11.72
505.106	11.77
505.455	11.8
505.803	11.8
506.152	11.79
506.5	11.82
506.849	11.83
507.197	11.85
507.546	11.85
507.894	11.87
508.242	11.87
508.59	11.87
508.939	11.88
509.287	11.91
509.635	11.92
509.983	11.93
510.331	11.93
510.679	11.93
511.027	11.94
511.375	11.97
511.723	11.99
512.07	12.02
512.418	12.05
512.766	12.07
513.114	12.11
513.461	12.12
513.809	12.15
514.156	12.17
514.504	12.2
514.851	12.2
515.199	12.19
515.546	12.2
515.893	12.22
516.241	12.24
516.588	12.23
516.935	12.26
517.282	12.27
517.63	12.3
517.977	12.33
518.324	12.35
518.671	12.35
519.018	12.39
519.365	12.39
519.711	12.4
520.058	12.39
520.405	12.38
520.752	12.41
521.099	12.45
521.445	12.48
521.792	12.49
522.138	12.51
522.485	12.53
522.832	12.57
523.178	12.6
523.524	12.61
523.871	12.62
524.217	12.6
524.563	12.58
524.91	12.57
525.256	12.52
525.602	12.51
525.948	12.51
526.294	12.5
526.64	12.48
526.986	12.48
527.332	12.47
527.678	12.48
528.024	12.48
528.37	12.5
528.716	12.48
529.061	12.49
529.407	12.48
529.753	12.47
530.098	12.46
530.444	12.46
530.789	12.47
531.135	12.47
531.48	12.48
531.826	12.51
532.171	12.52
532.516	12.55
532.862	12.56
533.207	12.57
533.552	12.57
533.897	12.58
534.242	12.59
534.587	12.61
534.932	12.65
535.277	12.63
535.622	12.61
535.967	12.64
536.312	12.65
536.657	12.66
537.001	12.7
537.346	12.71
537.691	12.7
538.035	12.66
538.38	12.65
538.724	12.64
539.069	12.63
539.413	12.61
539.758	12.61
540.102	12.63
540.446	12.61
540.791	12.62
541.135	12.63
541.479	12.64
541.823	12.63
542.167	12.61
542.512	12.64
542.856	12.6
543.2	12.57
543.543	12.55
543.887	12.55
544.231	12.56
544.575	12.55
544.919	12.57
545.262	12.63
545.606	12.65
545.95	12.67
546.293	12.69
546.637	12.7
546.98	12.72
547.324	12.72
547.667	12.77
548.011	12.75
548.354	12.76
548.697	12.74
549.04	12.75
549.384	12.72
549.727	12.66
550.07	12.7
550.413	12.73
550.756	12.72
551.099	12.72
551.442	12.67
551.785	12.66
552.128	12.63
552.47	12.56
552.813	12.53
553.156	12.48
553.499	12.43
553.841	12.4
554.184	12.35
554.526	12.31
554.869	12.22
555.211	12.22
555.554	12.16
555.896	12.1
556.238	12.03
556.581	12.02
556.923	12.02
557.265	11.98
557.607	11.93
557.949	11.93
558.291	11.87
558.633	11.81
558.975	11.79
559.317	11.73
559.659	11.69
560.001	11.67
560.343	11.63
560.685	11.6
561.026	11.57
561.368	11.52
561.71	11.5
562.051	11.47
562.393	11.46
562.734	11.38
563.076	11.37
563.417	11.34
563.759	11.3
564.1	11.22
564.441	11.22
564.782	11.17
565.124	11.09
565.465	11.04
565.806	11.03
566.147	10.95
566.488	10.95
566.829	10.92
567.17	10.88
567.511	10.84
567.851	10.81
568.192	10.77
568.533	10.74
568.874	10.72
569.214	10.67
569.555	10.58
569.895	10.58
570.236	10.56
570.576	10.54
570.917	10.48
571.257	10.47
571.598	10.39
571.938	10.34
572.278	10.33
572.618	10.31
572.959	10.3
573.299	10.27
573.639	10.21
573.979	10.19
574.319	10.13
574.659	10.11
574.999	10.08
575.339	10.05
575.678	10.02
576.018	9.96
576.358	9.94
576.698	9.91
577.037	9.87
577.377	9.8
577.716	9.75
578.056	9.74
578.395	9.68
578.735	9.63
579.074	9.6
579.413	9.56
579.753	9.52
580.092	9.46
580.431	9.44
580.77	9.43
581.109	9.39
581.448	9.37
581.787	9.31
582.126	9.28
582.465	9.23
582.804	9.18
583.143	9.17
583.482	9.15
583.82	9.13
584.159	9.11
584.498	9.08
584.836	9.01
585.175	8.96
585.514	8.93
585.852	8.93
586.19	8.91
586.529	8.9
586.867	8.86
587.205	8.84
587.544	8.83
587.882	8.76
588.22	8.74
588.558	8.74
588.896	8.75
589.234	8.72
589.572	8.73
589.91	8.73
590.248	8.68
590.586	8.68
590.924	8.67
591.262	8.64
591.599	8.61
591.937	8.65
592.275	8.63
592.612	8.62
592.95	8.6
593.287	8.6
593.625	8.56
593.962	8.52
594.299	8.51
594.637	8.48
594.974	8.47
595.311	8.44
595.648	8.41
595.985	8.38
596.322	8.35
596.659	8.36
596.996	8.31
597.333	8.26
597.67	8.22
598.007	8.17
598.344	8.16
598.681	8.16
599.017	8.08
599.354	8.04
599.691	8.01
600.027	7.99
600.364	7.92
600.7	7.91
601.037	7.94
601.373	7.91
601.71	7.88
602.046	7.89
602.382	7.89
602.718	7.89
603.054	7.87
603.391	7.84
603.727	7.79
604.063	7.78
604.399	7.79
604.735	7.78
605.071	7.74
605.406	7.73
605.742	7.73
606.078	7.76
606.414	7.73
606.749	7.73
607.085	7.68
607.421	7.67
607.756	7.66
608.092	7.59
608.427	7.58
608.762	7.55
609.098	7.51
609.433	7.48
609.768	7.42
610.104	7.39
610.439	7.35
610.774	7.34
611.109	7.29
611.444	7.28
611.779	7.25
612.114	7.23
612.449	7.21
612.784	7.16
613.118	7.13
613.453	7.14
613.788	7.1
614.123	7.08
614.457	7.09
614.792	7.06
615.126	7.05
615.461	7
615.795	6.95
616.13	6.9
616.464	6.87
616.798	6.86
617.132	6.85
617.467	6.84
617.801	6.81
618.135	6.82
618.469	6.81
618.803	6.76
619.137	6.78
619.471	6.76
619.805	6.73
620.139	6.71
620.472	6.69
620.806	6.69
621.14	6.67
621.473	6.67
621.807	6.65
622.141	6.63
622.474	6.61
622.808	6.62
623.141	6.62
623.474	6.6
623.808	6.59
624.141	6.62
624.474	6.65
624.807	6.67
625.141	6.69
625.474	6.7
625.807	6.72
626.14	6.71
626.473	6.71
626.806	6.75
627.138	6.76
627.471	6.7
627.804	6.67
628.137	6.67
628.469	6.63
628.802	6.6
629.135	6.58
629.467	6.59
629.8	6.59
630.132	6.6
630.465	6.62
630.797	6.64
631.129	6.6
631.461	6.56
631.794	6.58
632.126	6.54
632.458	6.52
632.79	6.53
633.122	6.54
633.454	6.52
633.786	6.47
634.118	6.44
634.45	6.5
634.781	6.48
635.113	6.47
635.445	6.44
635.777	6.45
636.108	6.48
636.44	6.47
636.771	6.48
637.103	6.42
637.434	6.41
637.765	6.38
638.097	6.42
638.428	6.42
638.759	6.33
639.09	6.31
639.422	6.31
639.753	6.29
640.084	6.31
640.415	6.32
640.746	6.32
641.077	6.29
641.407	6.27
641.738	6.3
642.069	6.3
642.4	6.36
642.73	6.35
643.061	6.3
643.392	6.31
643.722	6.28
644.053	6.32
644.383	6.33
644.713	6.34
645.044	6.29
645.374	6.29
645.704	6.27
646.034	6.3
646.365	6.32
646.695	6.39
647.025	6.41
647.355	6.42
647.685	6.42
648.015	6.47
648.344	6.46
648.674	6.45
649.004	6.44
649.334	6.39
649.663	6.41
649.993	6.44
650.323	6.39
650.652	6.4
650.982	6.41
651.311	6.38
651.64	6.34
651.97	6.33
652.299	6.34
652.628	6.35
652.958	6.31
653.287	6.35
653.616	6.24
653.945	6.15
654.274	6.15
654.603	6.13
654.932	6.12
655.261	6.12
655.589	6.13
655.918	6.14
656.247	6.15
656.576	6.19
656.904	6.21
657.233	6.26
657.561	6.24
657.89	6.22
658.218	6.24
658.547	6.28
658.875	6.3
659.203	6.29
659.532	6.31
