Data from Anodorhynchus_glaucus_rump_Reflection_5.txt Node
Date: Wed Mar 10 12:50:58 GMT-03:00 2021
User: Darío
Spectrometer: USB2E3644
Trigger mode: 4
Integration Time (sec): 5.600000E-2
Scans to average: 10
Electric dark correction enabled: true
Nonlinearity correction enabled: false
Boxcar width: 10
XAxis mode: Wavelengths
Number of Pixels in Spectrum: 2048
>>>>>Begin Spectral Data<<<<<
178.315	119.27
178.696	107.06
179.076	121.62
179.457	122.64
179.838	119.31
180.218	109.49
180.599	77.54
180.979	-2600
181.36	124.76
181.74	163.77
182.121	153.11
182.501	130.37
182.881	124.83
183.262	120.13
183.642	123.52
184.022	120.95
184.402	124.43
184.783	130.76
185.163	137.3
185.543	151.95
185.923	166.7
186.303	175.98
186.683	172.06
187.063	163.09
187.443	153.44
187.823	149.75
188.203	148.46
188.583	146.72
188.963	148.88
189.343	146.99
189.723	137.6
190.102	141.82
190.482	145.71
190.862	143.89
191.242	140.87
191.621	136.19
192.001	136.11
192.38	135.3
192.76	132.13
193.14	129.04
193.519	124.39
193.898	122.49
194.278	123.6
194.657	125.11
195.037	126.28
195.416	129.31
195.795	128.71
196.175	128.4
196.554	126.72
196.933	128.5
197.312	133.1
197.692	138.1
198.071	140.01
198.45	142.43
198.829	143.35
199.208	145.4
199.587	148.34
199.966	152.03
200.345	150.47
200.724	148.44
201.103	147.83
201.482	148.97
201.86	151.83
202.239	152.35
202.618	154.12
202.997	160.35
203.375	162.8
203.754	164.49
204.133	161.19
204.511	164.01
204.89	159.53
205.269	151.45
205.647	149.75
206.026	146.99
206.404	146.01
206.782	148.99
207.161	151.05
207.539	155.27
207.918	151.33
208.296	153.49
208.674	158.55
209.052	164.48
209.431	166.3
209.809	159.1
210.187	153.22
210.565	147.95
210.943	148.66
211.321	147.12
211.699	148.45
212.077	158.78
212.455	164.82
212.833	179.49
213.211	190.45
213.589	194.72
213.967	184.97
214.345	185.68
214.722	183.23
215.1	184.52
215.478	186.03
215.855	192.98
216.233	195.32
216.611	187.25
216.988	182.33
217.366	194.81
217.743	238.33
218.121	276.07
218.498	317.05
218.876	302.17
219.253	334.05
219.631	390.93
220.008	372.67
220.385	432.74
220.762	411.08
221.14	497.9
221.517	546.13
221.894	976.51
222.271	1368.64
222.648	5553.57
223.025	5317.86
223.402	1739.77
223.78	3917.5
224.157	1271.32
224.533	928.06
224.91	712.89
225.287	583.54
225.664	522.43
226.041	535.41
226.418	498.28
226.795	480.23
227.171	514.11
227.548	558.51
227.925	622.26
228.301	589.88
228.678	709.06
229.055	644.21
229.431	839.45
229.808	910.25
230.184	836.07
230.561	819.8
230.937	1262.87
231.313	1538.95
231.69	3228.05
232.066	-5988.64
232.442	-2072.66
232.819	-1337.38
233.195	-1517.03
233.571	-2847.96
233.947	70375
234.323	4501.56
234.699	5153.45
235.075	7577.5
235.451	-38562.5
235.827	-3012.5
236.203	-1878.24
236.579	-1302.07
236.955	-741
237.331	-552.01
237.707	-387.3
238.083	-281.46
238.459	-211.33
238.834	-175.03
239.21	-143.31
239.586	-129.25
239.961	-113.07
240.337	-100.68
240.713	-89.88
241.088	-82.39
241.464	-75.73
241.839	-73.8
242.215	-66.37
242.59	-58.01
242.965	-47.31
243.341	-36.84
243.716	-28.27
244.091	-22.68
244.467	-18.92
244.842	-17.33
245.217	-17.54
245.592	-17.18
245.967	-16.77
246.343	-18.19
246.718	-19.45
247.093	-19.89
247.468	-20.65
247.843	-20.16
248.218	-19.09
248.593	-19.15
248.967	-19.18
249.342	-18.05
249.717	-17.09
250.092	-16.79
250.467	-16.62
250.841	-17.11
251.216	-18.47
251.591	-21.07
251.965	-23.16
252.34	-26.26
252.714	-28.28
253.089	-29.41
253.463	-30.93
253.838	-31.33
254.212	-27.82
254.587	-25.42
254.961	-23.23
255.335	-20.46
255.71	-18.81
256.084	-15.7
256.458	-11.68
256.832	-9.18
257.206	-8.28
257.581	-7.79
257.955	-7.24
258.329	-6.62
258.703	-6.19
259.077	-5.96
259.451	-5.77
259.825	-5.6
260.199	-5.29
260.572	-4.87
260.946	-4.75
261.32	-4.22
261.694	-3.63
262.068	-3.69
262.441	-3.18
262.815	-3.02
263.189	-2.63
263.562	-1.78
263.936	-1.89
264.309	-2.54
264.683	-2.78
265.056	-3.32
265.43	-3.04
265.803	-3.17
266.176	-3.29
266.55	-3.11
266.923	-2.94
267.296	-2.93
267.67	-2.7
268.043	-2.76
268.416	-2.37
268.789	-2.29
269.162	-2.55
269.535	-2.67
269.908	-2.3
270.281	-2.49
270.654	-2.47
271.027	-3.14
271.4	-3.6
271.773	-3.38
272.146	-3.35
272.519	-3.92
272.891	-3.93
273.264	-3.9
273.637	-3.54
274.01	-3.59
274.382	-3.93
274.755	-4.32
275.127	-4.2
275.5	-4.3
275.872	-3.94
276.245	-3.88
276.617	-3.54
276.99	-3.5
277.362	-3.66
277.734	-3.29
278.107	-3.22
278.479	-2.86
278.851	-2.2
279.223	-1.93
279.596	-1.89
279.968	-1.63
280.34	-0.59
280.712	0.04
281.084	0.35
281.456	0.45
281.828	0.98
282.2	1.29
282.572	1.74
282.944	1.67
283.315	1.49
283.687	1.27
284.059	0.88
284.431	0.76
284.802	0.93
285.174	0.83
285.546	0.5
285.917	0.61
286.289	0.66
286.66	0.6
287.032	0.2
287.403	0.1
287.775	0.01
288.146	0.01
288.518	-0.1
288.889	-0.35
289.26	-0.81
289.632	-1.2
290.003	-1.13
290.374	-1.02
290.745	-0.92
291.116	-0.72
291.487	-0.66
291.858	-0.21
292.229	-0.04
292.6	0.09
292.971	0.59
293.342	0.95
293.713	1.22
294.084	1.25
294.455	1.22
294.826	1.63
295.196	1.57
295.567	1.53
295.938	1.28
296.308	1.42
296.679	1.43
297.05	1.78
297.42	2.11
297.791	2.35
298.161	2.33
298.532	2.36
298.902	2.52
299.272	2.93
299.643	2.9
300.013	2.99
300.383	3.08
300.754	2.97
301.124	2.94
301.494	2.93
301.864	3.05
302.234	3.17
302.604	3.18
302.974	3.34
303.344	3.43
303.714	3.46
304.084	3.64
304.454	4.12
304.824	4.29
305.194	4.4
305.563	4.29
305.933	4.39
306.303	4.5
306.673	4.63
307.042	4.64
307.412	4.79
307.781	4.94
308.151	5.01
308.521	5.23
308.89	5.27
309.259	5.3
309.629	5.34
309.998	5.4
310.368	5.42
310.737	5.54
311.106	5.63
311.475	5.83
311.845	5.67
312.214	5.56
312.583	5.77
312.952	5.76
313.321	5.73
313.69	5.92
314.059	6.22
314.428	6.36
314.797	6.29
315.166	6.44
315.535	6.42
315.904	6.41
316.272	6.39
316.641	6.63
317.01	6.85
317.379	6.9
317.747	7.02
318.116	7.18
318.484	7.09
318.853	6.99
319.221	7.02
319.59	7.28
319.958	7.2
320.327	6.99
320.695	6.97
321.063	7.23
321.432	7.06
321.8	6.83
322.168	6.67
322.536	6.74
322.905	6.78
323.273	6.77
323.641	6.97
324.009	7.08
324.377	6.95
324.745	7.01
325.113	6.99
325.481	7.02
325.849	7.08
326.216	7.29
326.584	7.51
326.952	7.62
327.32	7.56
327.687	7.71
328.055	7.82
328.423	7.91
328.79	7.94
329.158	8.1
329.525	8.3
329.893	8.47
330.26	8.61
330.628	8.65
330.995	8.65
331.362	8.58
331.73	8.62
332.097	8.74
332.464	8.63
332.831	8.69
333.199	8.97
333.566	9.18
333.933	9.3
334.3	9.38
334.667	9.29
335.034	9.26
335.401	9.35
335.768	9.42
336.135	9.43
336.502	9.55
336.868	9.59
337.235	9.62
337.602	9.7
337.969	9.71
338.335	9.76
338.702	9.95
339.069	10.07
339.435	10.11
339.802	10.01
340.168	10.1
340.535	10.19
340.901	10.06
341.267	9.95
341.634	9.82
342	9.91
342.366	10.01
342.733	10.25
343.099	10.32
343.465	10.44
343.831	10.53
344.197	10.46
344.563	10.43
344.929	10.48
345.295	10.49
345.661	10.58
346.027	10.58
346.393	10.51
346.759	10.52
347.125	10.51
347.491	10.68
347.856	10.73
348.222	10.8
348.588	10.87
348.953	10.92
349.319	11.11
349.684	11.08
350.05	11.05
350.415	11
350.781	10.99
351.146	10.95
351.512	10.92
351.877	10.98
352.242	10.99
352.608	10.97
352.973	11.04
353.338	10.99
353.703	11.05
354.068	11.09
354.433	11.13
354.798	11.15
355.164	11.14
355.528	11.17
355.893	11.13
356.258	11.06
356.623	11.1
356.988	11.06
357.353	11.09
357.718	11.13
358.082	11.08
358.447	11.08
358.812	11.09
359.176	11.16
359.541	11.19
359.905	11.24
360.27	11.26
360.634	11.27
360.999	11.29
361.363	11.31
361.728	11.4
362.092	11.39
362.456	11.46
362.821	11.47
363.185	11.43
363.549	11.48
363.913	11.57
364.277	11.61
364.641	11.68
365.005	11.72
365.369	11.82
365.733	11.97
366.097	11.99
366.461	12.01
366.825	11.99
367.189	12
367.553	12.04
367.916	12.15
368.28	12.2
368.644	12.29
369.007	12.29
369.371	12.29
369.734	12.36
370.098	12.42
370.461	12.54
370.825	12.62
371.188	12.68
371.552	12.71
371.915	12.72
372.278	12.72
372.642	12.71
373.005	12.72
373.368	12.7
373.731	12.75
374.094	12.8
374.457	12.85
374.82	12.91
375.183	12.95
375.546	12.94
375.909	12.94
376.272	12.91
376.635	12.92
376.998	12.94
377.361	12.95
377.723	12.94
378.086	12.9
378.449	12.91
378.811	12.89
379.174	12.87
379.537	12.82
379.899	12.8
380.262	12.86
380.624	12.86
380.987	12.81
381.349	12.85
381.711	12.84
382.074	12.86
382.436	12.84
382.798	12.88
383.16	12.81
383.522	12.79
383.884	12.86
384.247	12.87
384.609	12.87
384.971	12.83
385.333	12.8
385.695	12.83
386.056	12.84
386.418	12.85
386.78	12.87
387.142	12.93
387.504	12.91
387.865	12.86
388.227	12.82
388.589	12.82
388.95	12.81
389.312	12.77
389.673	12.76
390.035	12.7
390.396	12.66
390.758	12.69
391.119	12.7
391.48	12.64
391.842	12.61
392.203	12.58
392.564	12.62
392.925	12.6
393.286	12.58
393.648	12.56
394.009	12.53
394.37	12.52
394.731	12.48
395.092	12.47
395.452	12.47
395.813	12.48
396.174	12.5
396.535	12.48
396.896	12.51
397.257	12.48
397.617	12.51
397.978	12.54
398.338	12.52
398.699	12.56
399.06	12.6
399.42	12.6
399.781	12.58
400.141	12.55
400.501	12.55
400.862	12.55
401.222	12.54
401.582	12.52
401.943	12.48
402.303	12.51
402.663	12.53
403.023	12.53
403.383	12.54
403.743	12.54
404.103	12.53
404.463	12.54
404.823	12.55
405.183	12.57
405.543	12.53
405.903	12.53
406.262	12.51
406.622	12.48
406.982	12.5
407.342	12.54
407.701	12.56
408.061	12.55
408.42	12.55
408.78	12.54
409.139	12.57
409.499	12.58
409.858	12.59
410.217	12.56
410.577	12.56
410.936	12.53
411.295	12.48
411.655	12.49
412.014	12.46
412.373	12.46
412.732	12.42
413.091	12.42
413.45	12.38
413.809	12.36
414.168	12.33
414.527	12.27
414.886	12.23
415.245	12.18
415.603	12.15
415.962	12.13
416.321	12.11
416.679	12.06
417.038	12.03
417.397	11.99
417.755	11.96
418.114	11.93
418.472	11.91
418.831	11.89
419.189	11.86
419.547	11.85
419.906	11.83
420.264	11.8
420.622	11.78
420.981	11.77
421.339	11.75
421.697	11.74
422.055	11.74
422.413	11.76
422.771	11.78
423.129	11.79
423.487	11.8
423.845	11.81
424.203	11.82
424.56	11.84
424.918	11.86
425.276	11.88
425.634	11.91
425.991	11.94
426.349	11.98
426.707	12.01
427.064	12.03
427.422	12.07
427.779	12.13
428.137	12.16
428.494	12.2
428.851	12.24
429.209	12.27
429.566	12.28
429.923	12.27
430.28	12.27
430.637	12.29
430.995	12.29
431.352	12.29
431.709	12.32
432.066	12.31
432.423	12.3
432.78	12.32
433.137	12.34
433.493	12.34
433.85	12.36
434.207	12.34
434.564	12.34
434.92	12.32
435.277	12.32
435.634	12.32
435.99	12.33
436.347	12.33
436.703	12.32
437.06	12.32
437.416	12.33
437.773	12.34
438.129	12.35
438.485	12.33
438.841	12.33
439.198	12.34
439.554	12.36
439.91	12.39
440.266	12.38
440.622	12.38
440.978	12.38
441.334	12.37
441.69	12.37
442.046	12.35
442.402	12.35
442.758	12.34
443.113	12.35
443.469	12.35
443.825	12.37
444.181	12.38
444.536	12.4
444.892	12.39
445.247	12.41
445.603	12.4
445.958	12.43
446.314	12.47
446.669	12.47
447.025	12.48
447.38	12.47
447.735	12.49
448.09	12.5
448.446	12.52
448.801	12.54
449.156	12.57
449.511	12.62
449.866	12.65
450.221	12.69
450.576	12.73
450.931	12.78
451.286	12.82
451.641	12.87
451.995	12.93
452.35	12.98
452.705	13
453.06	13.05
453.414	13.06
453.769	13.08
454.123	13.09
454.478	13.13
454.832	13.14
455.187	13.15
455.541	13.15
455.896	13.16
456.25	13.13
456.604	13.11
456.958	13.1
457.313	13.12
457.667	13.13
458.021	13.13
458.375	13.15
458.729	13.16
459.083	13.17
459.437	13.16
459.791	13.18
460.145	13.2
460.499	13.21
460.852	13.23
461.206	13.24
461.56	13.25
461.914	13.26
462.267	13.29
462.621	13.33
462.974	13.36
463.328	13.42
463.681	13.49
464.035	13.55
464.388	13.63
464.742	13.66
465.095	13.71
465.448	13.73
465.801	13.77
466.155	13.77
466.508	13.76
466.861	13.78
467.214	13.77
467.567	13.78
467.92	13.8
468.273	13.8
468.626	13.83
468.979	13.86
469.332	13.86
469.684	13.87
470.037	13.87
470.39	13.89
470.743	13.89
471.095	13.91
471.448	13.94
471.8	13.94
472.153	13.97
472.505	13.99
472.858	14.01
473.21	14
473.562	14.05
473.915	14.09
474.267	14.14
474.619	14.16
474.971	14.17
475.324	14.17
475.676	14.2
476.028	14.19
476.38	14.19
476.732	14.21
477.084	14.22
477.436	14.26
477.787	14.27
478.139	14.28
478.491	14.29
478.843	14.28
479.195	14.28
479.546	14.28
479.898	14.29
480.249	14.33
480.601	14.38
480.952	14.41
481.304	14.42
481.655	14.41
482.007	14.42
482.358	14.43
482.709	14.44
483.061	14.45
483.412	14.46
483.763	14.47
484.114	14.48
484.465	14.49
484.816	14.5
485.167	14.51
485.518	14.52
485.869	14.53
486.22	14.54
486.571	14.56
486.922	14.58
487.272	14.61
487.623	14.63
487.974	14.65
488.324	14.65
488.675	14.69
489.025	14.73
489.376	14.76
489.726	14.79
490.077	14.82
490.427	14.84
490.778	14.87
491.128	14.92
491.478	14.96
491.828	15.01
492.179	15.06
492.529	15.1
492.879	15.16
493.229	15.2
493.579	15.25
493.929	15.28
494.279	15.32
494.629	15.34
494.979	15.38
495.328	15.43
495.678	15.5
496.028	15.56
496.378	15.64
496.727	15.68
497.077	15.73
497.426	15.79
497.776	15.82
498.125	15.87
498.475	15.89
498.824	15.92
499.174	15.94
499.523	15.96
499.872	15.99
500.221	16.02
500.571	16.03
500.92	16.04
501.269	16.09
501.618	16.12
501.967	16.16
502.316	16.19
502.665	16.22
503.014	16.26
503.363	16.28
503.711	16.31
504.06	16.35
504.409	16.37
504.758	16.35
505.106	16.36
505.455	16.38
505.803	16.4
506.152	16.41
506.5	16.43
506.849	16.46
507.197	16.45
507.546	16.46
507.894	16.5
508.242	16.53
508.59	16.52
508.939	16.51
509.287	16.52
509.635	16.52
509.983	16.52
510.331	16.52
510.679	16.52
511.027	16.52
511.375	16.54
511.723	16.55
512.07	16.57
512.418	16.61
512.766	16.62
513.114	16.63
513.461	16.65
513.809	16.66
514.156	16.68
514.504	16.7
514.851	16.71
515.199	16.72
515.546	16.72
515.893	16.76
516.241	16.81
516.588	16.83
516.935	16.87
517.282	16.9
517.63	16.93
517.977	16.97
518.324	16.98
518.671	16.99
519.018	17
519.365	17.01
519.711	17.01
520.058	17.02
520.405	17.04
520.752	17.06
521.099	17.06
521.445	17.07
521.792	17.1
522.138	17.1
522.485	17.13
522.832	17.16
523.178	17.15
523.524	17.15
523.871	17.18
524.217	17.18
524.563	17.18
524.91	17.16
525.256	17.13
525.602	17.14
525.948	17.17
526.294	17.17
526.64	17.18
526.986	17.18
527.332	17.19
527.678	17.18
528.024	17.17
528.37	17.18
528.716	17.19
529.061	17.18
529.407	17.19
529.753	17.19
530.098	17.18
530.444	17.18
530.789	17.18
531.135	17.19
531.48	17.2
531.826	17.2
532.171	17.21
532.516	17.23
532.862	17.22
533.207	17.2
533.552	17.19
533.897	17.19
534.242	17.2
534.587	17.2
534.932	17.21
535.277	17.24
535.622	17.24
535.967	17.23
536.312	17.24
536.657	17.27
537.001	17.28
537.346	17.29
537.691	17.3
538.035	17.3
538.38	17.26
538.724	17.24
539.069	17.24
539.413	17.22
539.758	17.2
540.102	17.21
540.446	17.2
540.791	17.21
541.135	17.21
541.479	17.21
541.823	17.21
542.167	17.2
542.512	17.19
542.856	17.18
543.2	17.19
543.543	17.17
543.887	17.16
544.231	17.16
544.575	17.16
544.919	17.16
545.262	17.16
545.606	17.18
545.95	17.17
546.293	17.17
546.637	17.18
546.98	17.21
547.324	17.2
547.667	17.2
548.011	17.18
548.354	17.15
548.697	17.13
549.04	17.1
549.384	17.07
549.727	17.03
550.07	17.01
550.413	16.99
550.756	16.95
551.099	16.92
551.442	16.9
551.785	16.85
552.128	16.79
552.47	16.74
552.813	16.7
553.156	16.65
553.499	16.58
553.841	16.53
554.184	16.5
554.526	16.47
554.869	16.41
555.211	16.36
555.554	16.34
555.896	16.28
556.238	16.21
556.581	16.15
556.923	16.12
557.265	16.1
557.607	16.01
557.949	15.97
558.291	15.91
558.633	15.84
558.975	15.82
559.317	15.77
559.659	15.73
560.001	15.69
560.343	15.64
560.685	15.6
561.026	15.54
561.368	15.47
561.71	15.4
562.051	15.37
562.393	15.32
562.734	15.24
563.076	15.17
563.417	15.12
563.759	15.07
564.1	15.01
564.441	14.92
564.782	14.86
565.124	14.8
565.465	14.74
565.806	14.67
566.147	14.58
566.488	14.54
566.829	14.48
567.17	14.42
567.511	14.38
567.851	14.35
568.192	14.28
568.533	14.22
568.874	14.16
569.214	14.12
569.555	14.08
569.895	14.02
570.236	13.96
570.576	13.88
570.917	13.79
571.257	13.71
571.598	13.65
571.938	13.59
572.278	13.53
572.618	13.47
572.959	13.4
573.299	13.35
573.639	13.28
573.979	13.23
574.319	13.18
574.659	13.11
574.999	13.02
575.339	12.99
575.678	12.92
576.018	12.86
576.358	12.78
576.698	12.7
577.037	12.64
577.377	12.58
577.716	12.54
578.056	12.47
578.395	12.43
578.735	12.36
579.074	12.3
579.413	12.2
579.753	12.12
580.092	12.07
580.431	12.02
580.77	11.97
581.109	11.93
581.448	11.89
581.787	11.83
582.126	11.79
582.465	11.72
582.804	11.69
583.143	11.63
583.482	11.56
583.82	11.53
584.159	11.49
584.498	11.44
584.836	11.39
585.175	11.38
585.514	11.32
585.852	11.3
586.19	11.27
586.529	11.25
586.867	11.24
587.205	11.19
587.544	11.14
587.882	11.09
588.22	11.02
588.558	10.95
588.896	10.93
589.234	10.89
589.572	10.85
589.91	10.8
590.248	10.73
590.586	10.68
590.924	10.62
591.262	10.57
591.599	10.55
591.937	10.52
592.275	10.48
592.612	10.44
592.95	10.38
593.287	10.34
593.625	10.29
593.962	10.25
594.299	10.22
594.637	10.19
594.974	10.15
595.311	10.14
595.648	10.1
595.985	10.06
596.322	10.02
596.659	9.99
596.996	9.96
597.333	9.94
597.67	9.92
598.007	9.89
598.344	9.86
598.681	9.82
599.017	9.78
599.354	9.74
599.691	9.7
600.027	9.68
600.364	9.64
600.7	9.61
601.037	9.6
601.373	9.56
601.71	9.54
602.046	9.53
602.382	9.49
602.718	9.46
603.054	9.43
603.391	9.44
603.727	9.41
604.063	9.37
604.399	9.34
604.735	9.32
605.071	9.28
605.406	9.25
605.742	9.24
606.078	9.22
606.414	9.19
606.749	9.16
607.085	9.13
607.421	9.09
607.756	9.06
608.092	9
608.427	8.99
608.762	8.94
609.098	8.89
609.433	8.87
609.768	8.86
610.104	8.82
610.439	8.77
610.774	8.75
611.109	8.72
611.444	8.69
611.779	8.65
612.114	8.64
612.449	8.63
612.784	8.58
613.118	8.55
613.453	8.53
613.788	8.51
614.123	8.49
614.457	8.46
614.792	8.43
615.126	8.39
615.461	8.35
615.795	8.32
616.13	8.27
616.464	8.24
616.798	8.19
617.132	8.17
617.467	8.15
617.801	8.14
618.135	8.15
618.469	8.14
618.803	8.16
619.137	8.15
619.471	8.14
619.805	8.11
620.139	8.1
620.472	8.08
620.806	8.05
621.14	8.04
621.473	8.06
621.807	8.07
622.141	8.06
622.474	8.03
622.808	8.03
623.141	8.03
623.474	8.03
623.808	8.02
624.141	8.02
624.474	8.04
624.807	8
625.141	8.02
625.474	8.03
625.807	8.04
626.14	8.04
626.473	8.04
626.806	8.02
627.138	8.03
627.471	8.03
627.804	8.03
628.137	8.01
628.469	7.97
628.802	7.96
629.135	7.97
629.467	7.99
629.8	7.96
630.132	7.95
630.465	7.94
630.797	7.93
631.129	7.9
631.461	7.85
631.794	7.84
632.126	7.77
632.458	7.72
632.79	7.71
633.122	7.69
633.454	7.67
633.786	7.66
634.118	7.64
634.45	7.62
634.781	7.59
635.113	7.59
635.445	7.59
635.777	7.58
636.108	7.57
636.44	7.54
636.771	7.52
637.103	7.5
637.434	7.49
637.765	7.5
638.097	7.51
638.428	7.52
638.759	7.52
639.09	7.53
639.422	7.54
639.753	7.49
640.084	7.48
640.415	7.49
640.746	7.49
641.077	7.46
641.407	7.42
641.738	7.38
642.069	7.33
642.4	7.3
642.73	7.29
643.061	7.25
643.392	7.24
643.722	7.24
644.053	7.25
644.383	7.25
644.713	7.26
645.044	7.25
645.374	7.22
645.704	7.18
646.034	7.19
646.365	7.2
646.695	7.23
647.025	7.22
647.355	7.19
647.685	7.19
648.015	7.24
648.344	7.29
648.674	7.36
649.004	7.39
649.334	7.41
649.663	7.41
649.993	7.44
650.323	7.46
650.652	7.46
650.982	7.45
651.311	7.45
651.64	7.45
651.97	7.5
652.299	7.52
652.628	7.54
