Data from Anodorhynchus_glaucus_back_Reflection_4.txt Node
Date: Wed Mar 10 12:49:48 GMT-03:00 2021
User: Darío
Spectrometer: USB2E3644
Trigger mode: 4
Integration Time (sec): 5.600000E-2
Scans to average: 10
Electric dark correction enabled: true
Nonlinearity correction enabled: false
Boxcar width: 10
XAxis mode: Wavelengths
Number of Pixels in Spectrum: 2048
>>>>>Begin Spectral Data<<<<<
178.315	255.59
178.696	225.88
179.076	175.15
179.457	131.81
179.838	132.18
180.218	105.53
180.599	85.33
180.979	600
181.36	75.71
181.74	104.19
182.121	123.91
182.501	119.63
182.881	127.2
183.262	133.82
183.642	143.52
184.022	145.45
184.402	152.47
184.783	145.61
185.163	138.02
185.543	136.15
185.923	145.78
186.303	152.2
186.683	153.48
187.063	140.14
187.443	127.4
187.823	123.85
188.203	123.1
188.583	123.1
188.963	126.51
189.343	130.8
189.723	126.75
190.102	127.93
190.482	127.89
190.862	126.16
191.242	124.41
191.621	120.02
192.001	121.09
192.38	123.94
192.76	125.88
193.14	127.28
193.519	124.84
193.898	122.18
194.278	125.49
194.657	126.81
195.037	129.59
195.416	133.2
195.795	134.96
196.175	134.15
196.554	133.1
196.933	132.6
197.312	133.49
197.692	135.09
198.071	135.48
198.45	137.02
198.829	136.65
199.208	135.85
199.587	137.9
199.966	139.02
200.345	137.18
200.724	134.5
201.103	132.21
201.482	131.03
201.86	131.41
202.239	129.93
202.618	128.05
202.997	129.73
203.375	128.75
203.754	127.73
204.133	125.13
204.511	126.03
204.89	122.33
205.269	117.74
205.647	117.64
206.026	117.06
206.404	118.41
206.782	122.11
207.161	127.56
207.539	130.86
207.918	130.03
208.296	133.56
208.674	139.59
209.052	150
209.431	157.4
209.809	158.32
210.187	160.55
210.565	162.17
210.943	163.9
211.321	162.67
211.699	162.31
212.077	169.71
212.455	172.79
212.833	187.55
213.211	197.37
213.589	204.33
213.967	196.9
214.345	196.86
214.722	190.6
215.1	188.75
215.478	194.63
215.855	203.29
216.233	207.54
216.611	197.34
216.988	182.5
217.366	179.72
217.743	196
218.121	200.13
218.498	216.06
218.876	201.17
219.253	231.71
219.631	283.95
220.008	271.4
220.385	308.38
220.762	288.92
221.14	338.62
221.517	362.9
221.894	605.42
222.271	877.12
222.648	3460.71
223.025	3353.57
223.402	1107.95
223.78	2437.5
224.157	778.68
224.533	537.24
224.91	427.73
225.287	364.29
225.664	373.78
226.041	412.7
226.418	399.75
226.795	403.95
227.171	405.5
227.548	427.58
227.925	491.16
228.301	493.35
228.678	605.03
229.055	560.67
229.431	706.64
229.808	765.98
230.184	658.93
230.561	649.33
230.937	999.5
231.313	1222.67
231.69	2557.32
232.066	-4738.64
232.442	-1614.84
232.819	-994.66
233.195	-1119.23
233.571	-2023.47
233.947	50325
234.323	3210.94
234.699	3625.86
235.075	5527.5
235.451	-29362.5
235.827	-2275.96
236.203	-1381.76
236.579	-955.79
236.955	-519.67
237.331	-397.99
237.707	-277.62
238.083	-210.72
238.459	-161.56
238.834	-129.48
239.21	-103.27
239.586	-90.09
239.961	-76.44
240.337	-70.33
240.713	-65.31
241.088	-62.35
241.464	-55.73
241.839	-51.49
242.215	-45.12
242.59	-39.09
242.965	-30.07
243.341	-20
243.716	-14.17
244.091	-10.57
244.467	-7.78
244.842	-7.29
245.217	-6.19
245.592	-5.17
245.967	-4.81
246.343	-5.73
246.718	-6.78
247.093	-7.57
247.468	-9.06
247.843	-9.17
248.218	-8.28
248.593	-7.88
248.967	-8.14
249.342	-8.32
249.717	-8.33
250.092	-8.36
250.467	-8.31
250.841	-9.41
251.216	-11.96
251.591	-14.47
251.965	-16.3
252.34	-19.18
252.714	-21.63
253.089	-24.49
253.463	-27.84
253.838	-28.04
254.212	-25.43
254.587	-22.4
254.961	-19.63
255.335	-16.52
255.71	-14.79
256.084	-12.92
256.458	-10.57
256.832	-8.13
257.206	-6.99
257.581	-7.04
257.955	-6.58
258.329	-5.87
258.703	-5.22
259.077	-4.49
259.451	-4.04
259.825	-4.08
260.199	-4.06
260.572	-3.79
260.946	-3.78
261.32	-3.48
261.694	-2.97
262.068	-2.86
262.441	-2.65
262.815	-2.42
263.189	-2.32
263.562	-2.06
263.936	-2.18
264.309	-2.42
264.683	-3.07
265.056	-3.74
265.43	-3.31
265.803	-3.4
266.176	-3.88
266.55	-3.84
266.923	-3.97
267.296	-4.06
267.67	-3.43
268.043	-3.27
268.416	-3.05
268.789	-2.58
269.162	-2.33
269.535	-2.79
269.908	-2.92
270.281	-3.27
270.654	-3.6
271.027	-3.87
271.4	-3.97
271.773	-3.58
272.146	-3.42
272.519	-3.54
272.891	-3.44
273.264	-3.52
273.637	-3.23
274.01	-2.83
274.382	-3.11
274.755	-3.47
275.127	-3.48
275.5	-3.64
275.872	-2.88
276.245	-2.44
276.617	-2.25
276.99	-2.25
277.362	-1.72
277.734	-0.81
278.107	-0.42
278.479	0.01
278.851	0.01
279.223	0.22
279.596	0.24
279.968	0.34
280.34	0.84
280.712	1.28
281.084	1.6
281.456	1.75
281.828	1.73
282.2	2.1
282.572	2.8
282.944	3.01
283.315	2.9
283.687	2.43
284.059	2.09
284.431	2.09
284.802	2.1
285.174	2.08
285.546	1.96
285.917	2.02
286.289	2.04
286.66	2.26
287.032	2.01
287.403	1.94
287.775	1.87
288.146	2.03
288.518	1.98
288.889	2.01
289.26	1.89
289.632	1.81
290.003	1.65
290.374	1.53
290.745	1.55
291.116	1.74
291.487	2.04
291.858	2.4
292.229	2.48
292.6	2.74
292.971	2.69
293.342	2.61
293.713	2.84
294.084	3.03
294.455	3.29
294.826	3.71
295.196	3.71
295.567	3.71
295.938	3.58
296.308	3.54
296.679	3.37
297.05	3.38
297.42	3.38
297.791	3.62
298.161	3.54
298.532	3.65
298.902	3.8
299.272	3.96
299.643	4.02
300.013	3.88
300.383	3.87
300.754	4.13
301.124	4.4
301.494	4.31
301.864	4.19
302.234	3.96
302.604	3.73
302.974	3.66
303.344	3.62
303.714	3.53
304.084	3.66
304.454	4.03
304.824	4.16
305.194	4.53
305.563	4.64
305.933	4.73
306.303	4.67
306.673	4.68
307.042	4.63
307.412	4.65
307.781	4.95
308.151	5.06
308.521	5.03
308.89	5.01
309.259	5.01
309.629	5.05
309.998	5.2
310.368	5.32
310.737	5.56
311.106	5.81
311.475	6.12
311.845	6.3
312.214	6.41
312.583	6.6
312.952	6.51
313.321	6.31
313.69	6.46
314.059	6.74
314.428	6.84
314.797	6.96
315.166	7.07
315.535	7.19
315.904	7.3
316.272	7.53
316.641	7.69
317.01	8.03
317.379	8.18
317.747	8.26
318.116	8.35
318.484	8.41
318.853	8.27
319.221	8.2
319.59	8.2
319.958	8.09
320.327	7.98
320.695	8.08
321.063	8.43
321.432	8.47
321.8	8.5
322.168	8.54
322.536	8.6
322.905	8.66
323.273	8.42
323.641	8.47
324.009	8.41
324.377	8.27
324.745	8.08
325.113	8.15
325.481	8.25
325.849	8.37
326.216	8.31
326.584	8.43
326.952	8.55
327.32	8.69
327.687	8.79
328.055	8.86
328.423	9.05
328.79	9.11
329.158	9.16
329.525	9.17
329.893	9.17
330.26	9.1
330.628	9.08
330.995	9.24
331.362	9.26
331.73	9.48
332.097	9.69
332.464	9.74
332.831	9.65
333.199	9.72
333.566	9.81
333.933	10.05
334.3	10.15
334.667	10.06
335.034	10.11
335.401	10.27
335.768	10.42
336.135	10.36
336.502	10.44
336.868	10.55
337.235	10.61
337.602	10.8
337.969	10.9
338.335	10.96
338.702	11.04
339.069	11.14
339.435	10.98
339.802	10.96
340.168	11.06
340.535	11.22
340.901	11.2
341.267	11.17
341.634	11.14
342	11.27
342.366	11.4
342.733	11.38
343.099	11.46
343.465	11.59
343.831	11.67
344.197	11.66
344.563	11.64
344.929	11.62
345.295	11.45
345.661	11.51
346.027	11.63
346.393	11.66
346.759	11.68
347.125	11.77
347.491	11.83
347.856	11.87
348.222	11.99
348.588	12.04
348.953	12.08
349.319	12.13
349.684	12.03
350.05	12
350.415	12.05
350.781	12.02
351.146	11.95
351.512	11.95
351.877	11.99
352.242	12.1
352.608	12.15
352.973	12.3
353.338	12.34
353.703	12.38
354.068	12.42
354.433	12.44
354.798	12.46
355.164	12.51
355.528	12.55
355.893	12.48
356.258	12.47
356.623	12.55
356.988	12.56
357.353	12.68
357.718	12.74
358.082	12.76
358.447	12.91
358.812	12.92
359.176	12.95
359.541	13.12
359.905	13.11
360.27	13.19
360.634	13.24
360.999	13.27
361.363	13.29
361.728	13.37
362.092	13.46
362.456	13.56
362.821	13.58
363.185	13.65
363.549	13.67
363.913	13.77
364.277	13.82
364.641	13.91
365.005	13.95
365.369	14.1
365.733	14.21
366.097	14.19
366.461	14.22
366.825	14.28
367.189	14.29
367.553	14.38
367.916	14.45
368.28	14.59
368.644	14.73
369.007	14.8
369.371	14.84
369.734	14.88
370.098	14.96
370.461	15.08
370.825	15.14
371.188	15.26
371.552	15.33
371.915	15.4
372.278	15.45
372.642	15.5
373.005	15.51
373.368	15.55
373.731	15.61
374.094	15.74
374.457	15.86
374.82	15.92
375.183	16.01
375.546	16.08
375.909	16.05
376.272	16.06
376.635	16.11
376.998	16.15
377.361	16.17
377.723	16.2
378.086	16.17
378.449	16.18
378.811	16.21
379.174	16.2
379.537	16.21
379.899	16.24
380.262	16.29
380.624	16.28
380.987	16.24
381.349	16.24
381.711	16.24
382.074	16.2
382.436	16.17
382.798	16.15
383.16	16.08
383.522	16.03
383.884	16.03
384.247	16.04
384.609	16.05
384.971	16.06
385.333	16.05
385.695	16.11
386.056	16.11
386.418	16
386.78	15.98
387.142	16
387.504	15.97
387.865	15.9
388.227	15.87
388.589	15.87
388.95	15.84
389.312	15.82
389.673	15.81
390.035	15.77
390.396	15.74
390.758	15.74
391.119	15.76
391.48	15.68
391.842	15.66
392.203	15.64
392.564	15.66
392.925	15.65
393.286	15.63
393.648	15.58
394.009	15.65
394.37	15.68
394.731	15.64
395.092	15.64
395.452	15.66
395.813	15.68
396.174	15.71
396.535	15.72
396.896	15.75
397.257	15.77
397.617	15.82
397.978	15.84
398.338	15.86
398.699	15.86
399.06	15.91
399.42	15.89
399.781	15.89
400.141	15.83
400.501	15.8
400.862	15.79
401.222	15.8
401.582	15.76
401.943	15.69
402.303	15.66
402.663	15.66
403.023	15.62
403.383	15.57
403.743	15.55
404.103	15.54
404.463	15.5
404.823	15.44
405.183	15.4
405.543	15.37
405.903	15.35
406.262	15.34
406.622	15.28
406.982	15.26
407.342	15.23
407.701	15.21
408.061	15.22
408.42	15.2
408.78	15.18
409.139	15.17
409.499	15.19
409.858	15.22
410.217	15.22
410.577	15.21
410.936	15.22
411.295	15.17
411.655	15.15
412.014	15.12
412.373	15.08
412.732	15.04
413.091	14.99
413.45	14.95
413.809	14.92
414.168	14.84
414.527	14.77
414.886	14.73
415.245	14.68
415.603	14.63
415.962	14.58
416.321	14.53
416.679	14.49
417.038	14.44
417.397	14.37
417.755	14.32
418.114	14.29
418.472	14.24
418.831	14.22
419.189	14.19
419.547	14.16
419.906	14.14
420.264	14.11
420.622	14.09
420.981	14.06
421.339	14.03
421.697	14.03
422.055	14.03
422.413	14.03
422.771	14.03
423.129	14.03
423.487	14.05
423.845	14.06
424.203	14.07
424.56	14.08
424.918	14.1
425.276	14.11
425.634	14.13
425.991	14.16
426.349	14.19
426.707	14.22
427.064	14.23
427.422	14.27
427.779	14.32
428.137	14.38
428.494	14.41
428.851	14.47
429.209	14.51
429.566	14.5
429.923	14.5
430.28	14.48
430.637	14.47
430.995	14.45
431.352	14.44
431.709	14.43
432.066	14.44
432.423	14.44
432.78	14.45
433.137	14.46
433.493	14.44
433.85	14.45
434.207	14.45
434.564	14.47
434.92	14.45
435.277	14.43
435.634	14.4
435.99	14.39
436.347	14.39
436.703	14.36
437.06	14.36
437.416	14.35
437.773	14.36
438.129	14.37
438.485	14.36
438.841	14.36
439.198	14.36
439.554	14.35
439.91	14.36
440.266	14.36
440.622	14.36
440.978	14.37
441.334	14.35
441.69	14.33
442.046	14.31
442.402	14.33
442.758	14.32
443.113	14.31
443.469	14.32
443.825	14.33
444.181	14.36
444.536	14.39
444.892	14.42
445.247	14.42
445.603	14.42
445.958	14.45
446.314	14.46
446.669	14.49
447.025	14.5
447.38	14.51
447.735	14.52
448.09	14.55
448.446	14.55
448.801	14.57
449.156	14.6
449.511	14.63
449.866	14.65
450.221	14.69
450.576	14.73
450.931	14.77
451.286	14.78
451.641	14.8
451.995	14.83
452.35	14.85
452.705	14.87
453.06	14.91
453.414	14.92
453.769	14.92
454.123	14.93
454.478	14.93
454.832	14.92
455.187	14.93
455.541	14.89
455.896	14.87
456.25	14.86
456.604	14.84
456.958	14.84
457.313	14.86
457.667	14.85
458.021	14.85
458.375	14.87
458.729	14.9
459.083	14.91
459.437	14.92
459.791	14.91
460.145	14.92
460.499	14.92
460.852	14.95
461.206	14.97
461.56	14.99
461.914	15.01
462.267	15.02
462.621	15.03
462.974	15.08
463.328	15.13
463.681	15.17
464.035	15.22
464.388	15.25
464.742	15.27
465.095	15.29
465.448	15.3
465.801	15.31
466.155	15.3
466.508	15.3
466.861	15.29
467.214	15.32
467.567	15.34
467.92	15.35
468.273	15.34
468.626	15.35
468.979	15.36
469.332	15.36
469.684	15.37
470.037	15.4
470.39	15.41
470.743	15.43
471.095	15.46
471.448	15.47
471.8	15.48
472.153	15.5
472.505	15.55
472.858	15.57
473.21	15.58
473.562	15.59
473.915	15.61
474.267	15.65
474.619	15.63
474.971	15.64
475.324	15.64
475.676	15.67
476.028	15.68
476.38	15.7
476.732	15.72
477.084	15.75
477.436	15.76
477.787	15.78
478.139	15.79
478.491	15.8
478.843	15.81
479.195	15.83
479.546	15.8
479.898	15.81
480.249	15.85
480.601	15.93
480.952	15.97
481.304	15.98
481.655	15.99
482.007	16
482.358	16.01
482.709	16.02
483.061	16.02
483.412	16.03
483.763	16.02
484.114	16.04
484.465	16.05
484.816	16.05
485.167	16.06
485.518	16.07
485.869	16.07
486.22	16.09
486.571	16.1
486.922	16.13
487.272	16.14
487.623	16.16
487.974	16.16
488.324	16.17
488.675	16.19
489.025	16.21
489.376	16.22
489.726	16.24
490.077	16.26
490.427	16.28
490.778	16.3
491.128	16.34
491.478	16.37
491.828	16.4
492.179	16.44
492.529	16.46
492.879	16.5
493.229	16.54
493.579	16.57
493.929	16.6
494.279	16.63
494.629	16.66
494.979	16.69
495.328	16.72
495.678	16.77
496.028	16.83
496.378	16.87
496.727	16.91
497.077	16.95
497.426	16.99
497.776	17.02
498.125	17.04
498.475	17.08
498.824	17.11
499.174	17.14
499.523	17.15
499.872	17.17
500.221	17.22
500.571	17.24
500.92	17.27
501.269	17.3
501.618	17.34
501.967	17.38
502.316	17.41
502.665	17.44
503.014	17.47
503.363	17.49
503.711	17.55
504.06	17.59
504.409	17.62
504.758	17.62
505.106	17.64
505.455	17.67
505.803	17.67
506.152	17.7
506.5	17.72
506.849	17.74
507.197	17.78
507.546	17.79
507.894	17.81
508.242	17.83
508.59	17.84
508.939	17.84
509.287	17.86
509.635	17.89
509.983	17.92
510.331	17.94
510.679	17.99
511.027	18.01
511.375	18.04
511.723	18.08
512.07	18.14
512.418	18.18
512.766	18.23
513.114	18.28
513.461	18.32
513.809	18.33
514.156	18.36
514.504	18.36
514.851	18.38
515.199	18.41
515.546	18.44
515.893	18.45
516.241	18.48
516.588	18.48
516.935	18.51
517.282	18.54
517.63	18.56
517.977	18.58
518.324	18.6
518.671	18.61
519.018	18.63
519.365	18.64
519.711	18.65
520.058	18.67
520.405	18.67
520.752	18.71
521.099	18.73
521.445	18.77
521.792	18.81
522.138	18.83
522.485	18.87
522.832	18.92
523.178	18.96
523.524	19.02
523.871	19.06
524.217	19.08
524.563	19.08
524.91	19.12
525.256	19.17
525.602	19.22
525.948	19.25
526.294	19.27
526.64	19.29
526.986	19.3
527.332	19.31
527.678	19.34
528.024	19.32
528.37	19.35
528.716	19.36
529.061	19.39
529.407	19.43
529.753	19.46
530.098	19.48
530.444	19.5
530.789	19.52
531.135	19.53
531.48	19.56
531.826	19.59
532.171	19.62
532.516	19.64
532.862	19.65
533.207	19.67
533.552	19.69
533.897	19.72
534.242	19.75
534.587	19.79
534.932	19.81
535.277	19.86
535.622	19.87
535.967	19.89
536.312	19.91
536.657	19.92
537.001	19.95
537.346	19.98
537.691	20.02
538.035	20.04
538.38	20.09
538.724	20.11
539.069	20.13
539.413	20.15
539.758	20.19
540.102	20.22
540.446	20.25
540.791	20.28
541.135	20.29
541.479	20.3
541.823	20.32
542.167	20.33
542.512	20.36
542.856	20.36
543.2	20.38
543.543	20.4
543.887	20.42
544.231	20.43
544.575	20.46
544.919	20.49
545.262	20.52
545.606	20.55
545.95	20.57
546.293	20.58
546.637	20.62
546.98	20.64
547.324	20.64
547.667	20.68
548.011	20.68
548.354	20.69
548.697	20.7
549.04	20.7
549.384	20.69
549.727	20.66
550.07	20.68
550.413	20.68
550.756	20.67
551.099	20.67
551.442	20.68
551.785	20.65
552.128	20.61
552.47	20.61
552.813	20.6
553.156	20.59
553.499	20.59
553.841	20.56
554.184	20.55
554.526	20.56
554.869	20.51
555.211	20.49
555.554	20.46
555.896	20.47
556.238	20.44
556.581	20.42
556.923	20.43
557.265	20.4
557.607	20.37
557.949	20.37
558.291	20.35
558.633	20.31
558.975	20.3
559.317	20.29
559.659	20.26
560.001	20.26
560.343	20.24
560.685	20.21
561.026	20.19
561.368	20.18
561.71	20.14
562.051	20.15
562.393	20.15
562.734	20.14
563.076	20.12
563.417	20.1
563.759	20.09
564.1	20.06
564.441	20.04
564.782	20
565.124	19.96
565.465	19.92
565.806	19.91
566.147	19.88
566.488	19.85
566.829	19.82
567.17	19.79
567.511	19.77
567.851	19.76
568.192	19.75
568.533	19.7
568.874	19.69
569.214	19.66
569.555	19.62
569.895	19.57
570.236	19.5
570.576	19.46
570.917	19.41
571.257	19.36
571.598	19.34
571.938	19.28
572.278	19.24
572.618	19.2
572.959	19.18
573.299	19.12
573.639	19.08
573.979	19.04
574.319	18.99
574.659	18.95
574.999	18.88
575.339	18.83
575.678	18.77
576.018	18.68
576.358	18.63
576.698	18.57
577.037	18.55
577.377	18.52
577.716	18.45
578.056	18.38
578.395	18.32
578.735	18.22
579.074	18.19
579.413	18.12
579.753	18.05
580.092	17.95
580.431	17.91
580.77	17.88
581.109	17.83
581.448	17.8
581.787	17.75
582.126	17.69
582.465	17.63
582.804	17.58
583.143	17.57
583.482	17.5
583.82	17.47
584.159	17.43
584.498	17.38
584.836	17.35
585.175	17.32
585.514	17.29
585.852	17.25
586.19	17.23
586.529	17.21
586.867	17.2
587.205	17.16
587.544	17.1
587.882	17.04
588.22	16.98
588.558	16.91
588.896	16.86
589.234	16.82
589.572	16.78
589.91	16.75
590.248	16.68
590.586	16.63
590.924	16.59
591.262	16.53
591.599	16.48
591.937	16.45
592.275	16.41
592.612	16.36
592.95	16.33
593.287	16.27
593.625	16.22
593.962	16.14
594.299	16.09
594.637	16.06
594.974	16.04
595.311	16
595.648	15.95
595.985	15.9
596.322	15.84
596.659	15.79
596.996	15.74
597.333	15.68
597.67	15.64
598.007	15.56
598.344	15.49
598.681	15.43
599.017	15.35
599.354	15.29
599.691	15.23
600.027	15.15
600.364	15.08
600.7	14.98
601.037	14.95
601.373	14.88
601.71	14.8
602.046	14.73
602.382	14.66
602.718	14.59
603.054	14.54
603.391	14.53
603.727	14.5
604.063	14.47
604.399	14.43
604.735	14.39
605.071	14.35
605.406	14.31
605.742	14.28
606.078	14.25
606.414	14.2
606.749	14.14
607.085	14.13
607.421	14.07
607.756	14.04
608.092	13.96
608.427	13.91
608.762	13.85
609.098	13.77
609.433	13.74
609.768	13.71
610.104	13.68
610.439	13.59
610.774	13.51
611.109	13.45
611.444	13.39
611.779	13.36
612.114	13.32
612.449	13.27
612.784	13.19
613.118	13.14
613.453	13.06
613.788	13.04
614.123	12.95
614.457	12.89
614.792	12.8
615.126	12.76
615.461	12.72
615.795	12.67
616.13	12.65
616.464	12.59
616.798	12.52
617.132	12.46
617.467	12.43
617.801	12.39
618.135	12.36
618.469	12.32
618.803	12.27
619.137	12.24
619.471	12.18
619.805	12.17
620.139	12.1
620.472	12.09
620.806	12
621.14	11.94
621.473	11.93
621.807	11.91
622.141	11.85
622.474	11.76
622.808	11.74
623.141	11.69
623.474	11.67
623.808	11.69
624.141	11.67
624.474	11.68
624.807	11.68
625.141	11.69
625.474	11.7
625.807	11.68
626.14	11.65
626.473	11.66
626.806	11.62
627.138	11.61
627.471	11.59
627.804	11.6
628.137	11.61
628.469	11.56
628.802	11.54
629.135	11.54
629.467	11.55
629.8	11.53
630.132	11.52
630.465	11.47
630.797	11.44
631.129	11.39
631.461	11.36
631.794	11.3
632.126	11.22
632.458	11.19
632.79	11.17
633.122	11.15
633.454	11.14
633.786	11.15
634.118	11.15
634.45	11.13
634.781	11.09
635.113	11.03
635.445	11.01
635.777	10.99
636.108	10.96
636.44	10.94
636.771	10.89
637.103	10.83
637.434	10.81
637.765	10.77
638.097	10.77
638.428	10.74
638.759	10.73
639.09	10.73
639.422	10.69
639.753	10.7
640.084	10.65
640.415	10.62
640.746	10.6
641.077	10.58
641.407	10.56
641.738	10.54
642.069	10.55
642.4	10.53
642.73	10.56
643.061	10.55
643.392	10.5
643.722	10.53
644.053	10.58
644.383	10.55
644.713	10.53
645.044	10.49
645.374	10.45
645.704	10.44
646.034	10.4
646.365	10.4
646.695	10.39
647.025	10.4
647.355	10.34
647.685	10.33
648.015	10.33
648.344	10.34
648.674	10.36
649.004	10.33
649.334	10.31
649.663	10.27
