Data from Anodorhynchus_glaucus_rump_Reflection_4.txt Node
Date: Wed Mar 10 12:50:52 GMT-03:00 2021
User: Darío
Spectrometer: USB2E3644
Trigger mode: 4
Integration Time (sec): 5.600000E-2
Scans to average: 10
Electric dark correction enabled: true
Nonlinearity correction enabled: false
Boxcar width: 10
XAxis mode: Wavelengths
Number of Pixels in Spectrum: 2048
>>>>>Begin Spectral Data<<<<<
178.315	64.25
178.696	69.41
179.076	96.76
179.457	88.41
179.838	72.28
180.218	75.49
180.599	59.88
180.979	-3200
181.36	81.13
181.74	97.6
182.121	112.42
182.501	118.18
182.881	129.05
183.262	130.53
183.642	125.68
184.022	121.66
184.402	115.88
184.783	112.11
185.163	113.43
185.543	115.81
185.923	126.71
186.303	138.44
186.683	136.43
187.063	131.51
187.443	120.56
187.823	115.44
188.203	116.97
188.583	120.15
188.963	122.67
189.343	124.05
189.723	124.25
190.102	127.33
190.482	127.58
190.862	123.76
191.242	122.58
191.621	121.18
192.001	120.82
192.38	120.82
192.76	121.21
193.14	120.52
193.519	119.22
193.898	119.58
194.278	121.99
194.657	123.86
195.037	124.68
195.416	128.24
195.795	129.65
196.175	128.25
196.554	125.55
196.933	126.85
197.312	128.51
197.692	127.39
198.071	126.95
198.45	126.92
198.829	128.34
199.208	129.08
199.587	129.06
199.966	129.92
200.345	130.21
200.724	131.82
201.103	133.94
201.482	133.65
201.86	135.69
202.239	134.9
202.618	134.6
202.997	139.74
203.375	140.34
203.754	139.85
204.133	136.63
204.511	136.84
204.89	132.17
205.269	127.84
205.647	128.58
206.026	128.99
206.404	131.13
206.782	133.57
207.161	134.26
207.539	138.19
207.918	137.74
208.296	140.19
208.674	140.81
209.052	142.25
209.431	146.32
209.809	139.88
210.187	138.19
210.565	136.57
210.943	136.66
211.321	140.37
211.699	144.67
212.077	155.7
212.455	165.26
212.833	182.89
213.211	190.08
213.589	197.17
213.967	186.86
214.345	183.92
214.722	173.38
215.1	170.09
215.478	171.24
215.855	172.82
216.233	171.37
216.611	163.67
216.988	154.71
217.366	147.36
217.743	160.87
218.121	156.68
218.498	167.22
218.876	163.88
219.253	173.15
219.631	208.37
220.008	225.42
220.385	241.12
220.762	214.78
221.14	237.72
221.517	232.9
221.894	366.27
222.271	550.85
222.648	2342.86
223.025	2535.71
223.402	1018.18
223.78	2465
224.157	835.29
224.533	628.57
224.91	525.78
225.287	477.64
225.664	467.57
226.041	503.24
226.418	468.97
226.795	438.6
227.171	454.07
227.548	467.53
227.925	481.71
228.301	446.24
228.678	528.19
229.055	505.49
229.431	650
229.808	701.64
230.184	622.14
230.561	640.94
230.937	1007.92
231.313	1162.79
231.69	2336.59
232.066	-4054.55
232.442	-1323.44
232.819	-772.82
233.195	-815.38
233.571	-1502.04
233.947	39800
234.323	2637.5
234.699	3013.79
235.075	4415
235.451	-23275
235.827	-1801.92
236.203	-1137.65
236.579	-799.17
236.955	-445.5
237.331	-339.78
237.707	-243.72
238.083	-178.76
238.459	-126.81
238.834	-96.9
239.21	-77.52
239.586	-68.36
239.961	-58.04
240.337	-49.92
240.713	-46.68
241.088	-44.95
241.464	-39.01
241.839	-36.47
242.215	-31.06
242.59	-27.25
242.965	-21
243.341	-13.51
243.716	-8.86
244.091	-6.33
244.467	-4.84
244.842	-4.4
245.217	-4.87
245.592	-4.13
245.967	-4.09
246.343	-6.14
246.718	-7.93
247.093	-8.25
247.468	-9.62
247.843	-10.03
248.218	-9.53
248.593	-9.03
248.967	-8.41
249.342	-8.09
249.717	-7.68
250.092	-7.51
250.467	-6.77
250.841	-7.25
251.216	-9.13
251.591	-11.28
251.965	-11.99
252.34	-13.46
252.714	-14.45
253.089	-15.55
253.463	-17.58
253.838	-17.26
254.212	-13.2
254.587	-9.48
254.961	-7.05
255.335	-5.19
255.71	-5.57
256.084	-5.12
256.458	-3.66
256.832	-2.21
257.206	-1.71
257.581	-1.49
257.955	-1.35
258.329	-1.17
258.703	-1.14
259.077	-1.08
259.451	-1.42
259.825	-1.8
260.199	-1.87
260.572	-1.61
260.946	-1.37
261.32	-0.95
261.694	-0.53
262.068	-0.89
262.441	-1.02
262.815	-1.21
263.189	-1.03
263.562	-0.54
263.936	-1
264.309	-1.61
264.683	-2.5
265.056	-2.99
265.43	-2.57
265.803	-2.51
266.176	-3.4
266.55	-3.44
266.923	-3.22
267.296	-2.87
267.67	-2.71
268.043	-2.87
268.416	-2.95
268.789	-2.66
269.162	-2.62
269.535	-2.87
269.908	-2.38
270.281	-2.27
270.654	-2.17
271.027	-2.62
271.4	-2.89
271.773	-2.25
272.146	-1.97
272.519	-2.08
272.891	-1.87
273.264	-1.75
273.637	-1.36
274.01	-0.79
274.382	-0.95
274.755	-1.25
275.127	-1.27
275.5	-1.32
275.872	-0.89
276.245	-1.09
276.617	-1.01
276.99	-0.77
277.362	-0.39
277.734	-0.15
278.107	-0.09
278.479	0.26
278.851	1.01
279.223	1.46
279.596	1.47
279.968	1.6
280.34	1.9
280.712	2.19
281.084	2.25
281.456	2.36
281.828	2.54
282.2	2.81
282.572	3.03
282.944	3.13
283.315	3.42
283.687	3.59
284.059	3.77
284.431	3.82
284.802	3.91
285.174	3.87
285.546	3.82
285.917	3.77
286.289	3.7
286.66	3.49
287.032	3.16
287.403	3.07
287.775	2.93
288.146	3.2
288.518	3.19
288.889	2.96
289.26	2.64
289.632	2.53
290.003	2.93
290.374	3.26
290.745	3.44
291.116	3.31
291.487	3.12
291.858	3.34
292.229	3.43
292.6	3.39
292.971	3.37
293.342	3.37
293.713	3.55
294.084	3.56
294.455	3.59
294.826	4.05
295.196	4.13
295.567	4.23
295.938	4.03
296.308	3.9
296.679	3.88
297.05	4.09
297.42	4.27
297.791	4.17
298.161	3.92
298.532	3.77
298.902	3.92
299.272	4.2
299.643	4.34
300.013	4.24
300.383	4.29
300.754	4.29
301.124	4.23
301.494	4.23
301.864	4.36
302.234	4.21
302.604	3.95
302.974	4.01
303.344	4.11
303.714	4.09
304.084	4.16
304.454	4.43
304.824	4.36
305.194	4.54
305.563	4.69
305.933	5.08
306.303	5.48
306.673	5.66
307.042	5.65
307.412	5.62
307.781	5.83
308.151	5.96
308.521	6.04
308.89	6.29
309.259	6.42
309.629	6.33
309.998	6.43
310.368	6.53
310.737	6.62
311.106	6.64
311.475	6.74
311.845	6.87
312.214	6.96
312.583	7.18
312.952	7.09
313.321	7.04
313.69	6.97
314.059	6.9
314.428	6.9
314.797	6.89
315.166	6.89
315.535	6.95
315.904	6.96
316.272	6.88
316.641	6.67
317.01	6.51
317.379	6.43
317.747	6.56
318.116	6.66
318.484	6.6
318.853	6.48
319.221	6.81
319.59	6.9
319.958	6.94
320.327	7.02
320.695	7.11
321.063	7.21
321.432	7.26
321.8	7.43
322.168	7.34
322.536	7.43
322.905	7.42
323.273	7.21
323.641	7.32
324.009	7.58
324.377	7.93
324.745	8.09
325.113	8.23
325.481	8.19
325.849	8.21
326.216	8.35
326.584	8.51
326.952	8.34
327.32	8.36
327.687	8.37
328.055	8.4
328.423	8.46
328.79	8.41
329.158	8.42
329.525	8.37
329.893	8.53
330.26	8.6
330.628	8.8
330.995	8.98
331.362	8.9
331.73	8.83
332.097	8.65
332.464	8.61
332.831	8.77
333.199	9.03
333.566	9.23
333.933	9.27
334.3	9.36
334.667	9.33
335.034	9.38
335.401	9.5
335.768	9.51
336.135	9.56
336.502	9.74
336.868	9.91
337.235	10.05
337.602	10.18
337.969	10.23
338.335	10.24
338.702	10.3
339.069	10.33
339.435	10.4
339.802	10.47
340.168	10.54
340.535	10.59
340.901	10.54
341.267	10.45
341.634	10.42
342	10.47
342.366	10.59
342.733	10.62
343.099	10.64
343.465	10.74
343.831	10.79
344.197	10.8
344.563	10.85
344.929	10.86
345.295	10.7
345.661	10.69
346.027	10.69
346.393	10.74
346.759	10.8
347.125	10.81
347.491	10.89
347.856	10.95
348.222	10.93
348.588	10.87
348.953	10.94
349.319	10.96
349.684	10.85
350.05	10.82
350.415	10.83
350.781	10.77
351.146	10.64
351.512	10.54
351.877	10.47
352.242	10.43
352.608	10.48
352.973	10.63
353.338	10.69
353.703	10.77
354.068	10.8
354.433	10.87
354.798	10.92
355.164	10.87
355.528	10.86
355.893	10.86
356.258	10.89
356.623	10.88
356.988	10.96
357.353	11.08
357.718	11.15
358.082	11.15
358.447	11.23
358.812	11.25
359.176	11.36
359.541	11.49
359.905	11.53
360.27	11.53
360.634	11.52
360.999	11.53
361.363	11.55
361.728	11.59
362.092	11.6
362.456	11.6
362.821	11.68
363.185	11.74
363.549	11.73
363.913	11.82
364.277	11.91
364.641	11.95
365.005	11.97
365.369	12.08
365.733	12.22
366.097	12.26
366.461	12.33
366.825	12.43
367.189	12.45
367.553	12.56
367.916	12.62
368.28	12.74
368.644	12.85
369.007	12.88
369.371	12.87
369.734	12.93
370.098	13.05
370.461	13.11
370.825	13.13
371.188	13.25
371.552	13.34
371.915	13.36
372.278	13.43
372.642	13.48
373.005	13.46
373.368	13.47
373.731	13.51
374.094	13.59
374.457	13.58
374.82	13.61
375.183	13.63
375.546	13.68
375.909	13.68
376.272	13.73
376.635	13.76
376.998	13.82
377.361	13.79
377.723	13.76
378.086	13.74
378.449	13.74
378.811	13.73
379.174	13.71
379.537	13.71
379.899	13.68
380.262	13.69
380.624	13.71
380.987	13.67
381.349	13.71
381.711	13.7
382.074	13.7
382.436	13.68
382.798	13.68
383.16	13.64
383.522	13.58
383.884	13.56
384.247	13.57
384.609	13.58
384.971	13.65
385.333	13.65
385.695	13.71
386.056	13.76
386.418	13.76
386.78	13.78
387.142	13.79
387.504	13.8
387.865	13.72
388.227	13.7
388.589	13.68
388.95	13.62
389.312	13.61
389.673	13.59
390.035	13.57
390.396	13.51
390.758	13.5
391.119	13.47
391.48	13.4
391.842	13.33
392.203	13.32
392.564	13.29
392.925	13.29
393.286	13.26
393.648	13.25
394.009	13.22
394.37	13.19
394.731	13.2
395.092	13.17
395.452	13.21
395.813	13.2
396.174	13.23
396.535	13.27
396.896	13.31
397.257	13.33
397.617	13.34
397.978	13.35
398.338	13.36
398.699	13.38
399.06	13.42
399.42	13.44
399.781	13.41
400.141	13.39
400.501	13.36
400.862	13.37
401.222	13.35
401.582	13.34
401.943	13.32
402.303	13.31
402.663	13.33
403.023	13.33
403.383	13.32
403.743	13.35
404.103	13.33
404.463	13.3
404.823	13.28
405.183	13.28
405.543	13.3
405.903	13.31
406.262	13.34
406.622	13.3
406.982	13.32
407.342	13.35
407.701	13.37
408.061	13.43
408.42	13.4
408.78	13.41
409.139	13.43
409.499	13.42
409.858	13.44
410.217	13.47
410.577	13.46
410.936	13.47
411.295	13.4
411.655	13.39
412.014	13.4
412.373	13.38
412.732	13.38
413.091	13.36
413.45	13.36
413.809	13.32
414.168	13.31
414.527	13.26
414.886	13.22
415.245	13.18
415.603	13.13
415.962	13.11
416.321	13.11
416.679	13.06
417.038	13.03
417.397	12.98
417.755	12.93
418.114	12.91
418.472	12.87
418.831	12.87
419.189	12.86
419.547	12.82
419.906	12.82
420.264	12.79
420.622	12.78
420.981	12.75
421.339	12.74
421.697	12.73
422.055	12.73
422.413	12.74
422.771	12.75
423.129	12.76
423.487	12.77
423.845	12.76
424.203	12.78
424.56	12.81
424.918	12.83
425.276	12.87
425.634	12.89
425.991	12.92
426.349	12.95
426.707	12.99
427.064	13.03
427.422	13.08
427.779	13.12
428.137	13.17
428.494	13.23
428.851	13.3
429.209	13.34
429.566	13.36
429.923	13.35
430.28	13.37
430.637	13.38
430.995	13.39
431.352	13.4
431.709	13.42
432.066	13.43
432.423	13.45
432.78	13.46
433.137	13.5
433.493	13.54
433.85	13.56
434.207	13.53
434.564	13.55
434.92	13.54
435.277	13.54
435.634	13.55
435.99	13.55
436.347	13.54
436.703	13.56
437.06	13.57
437.416	13.58
437.773	13.59
438.129	13.6
438.485	13.61
438.841	13.62
439.198	13.62
439.554	13.63
439.91	13.66
440.266	13.65
440.622	13.65
440.978	13.67
441.334	13.65
441.69	13.67
442.046	13.66
442.402	13.66
442.758	13.68
443.113	13.68
443.469	13.69
443.825	13.71
444.181	13.72
444.536	13.75
444.892	13.78
445.247	13.8
445.603	13.83
445.958	13.85
446.314	13.89
446.669	13.92
447.025	13.93
447.38	13.94
447.735	13.97
448.09	14
448.446	14
448.801	14.03
449.156	14.05
449.511	14.1
449.866	14.16
450.221	14.19
450.576	14.23
450.931	14.3
451.286	14.36
451.641	14.4
451.995	14.45
452.35	14.5
452.705	14.56
453.06	14.58
453.414	14.6
453.769	14.6
454.123	14.61
454.478	14.66
454.832	14.65
455.187	14.65
455.541	14.64
455.896	14.66
456.25	14.66
456.604	14.68
456.958	14.7
457.313	14.71
457.667	14.72
458.021	14.74
458.375	14.75
458.729	14.78
459.083	14.81
459.437	14.82
459.791	14.83
460.145	14.84
460.499	14.85
460.852	14.86
461.206	14.91
461.56	14.94
461.914	14.94
462.267	14.98
462.621	15
462.974	15.05
463.328	15.1
463.681	15.17
464.035	15.22
464.388	15.26
464.742	15.28
465.095	15.31
465.448	15.35
465.801	15.38
466.155	15.38
466.508	15.39
466.861	15.41
467.214	15.43
467.567	15.45
467.92	15.48
468.273	15.5
468.626	15.51
468.979	15.53
469.332	15.55
469.684	15.58
470.037	15.6
470.39	15.61
470.743	15.63
471.095	15.64
471.448	15.68
471.8	15.72
472.153	15.74
472.505	15.76
472.858	15.79
473.21	15.81
473.562	15.85
473.915	15.9
474.267	15.94
474.619	15.96
474.971	15.97
475.324	15.98
475.676	16.01
476.028	16.02
476.38	16.02
476.732	16.05
477.084	16.08
477.436	16.11
477.787	16.13
478.139	16.16
478.491	16.19
478.843	16.17
479.195	16.17
479.546	16.19
479.898	16.23
480.249	16.26
480.601	16.31
480.952	16.34
481.304	16.33
481.655	16.33
482.007	16.34
482.358	16.36
482.709	16.37
483.061	16.37
483.412	16.39
483.763	16.41
484.114	16.41
484.465	16.43
484.816	16.43
485.167	16.45
485.518	16.46
485.869	16.47
486.22	16.49
486.571	16.51
486.922	16.53
487.272	16.56
487.623	16.58
487.974	16.61
488.324	16.63
488.675	16.68
489.025	16.72
489.376	16.74
489.726	16.77
490.077	16.8
490.427	16.83
490.778	16.85
491.128	16.9
491.478	16.94
491.828	16.99
492.179	17.06
492.529	17.09
492.879	17.13
493.229	17.17
493.579	17.2
493.929	17.23
494.279	17.25
494.629	17.29
494.979	17.31
495.328	17.36
495.678	17.41
496.028	17.47
496.378	17.52
496.727	17.56
497.077	17.61
497.426	17.67
497.776	17.68
498.125	17.74
498.475	17.74
498.824	17.78
499.174	17.78
499.523	17.8
499.872	17.82
500.221	17.85
500.571	17.87
500.92	17.92
501.269	17.94
501.618	18
501.967	18.04
502.316	18.07
502.665	18.1
503.014	18.13
503.363	18.15
503.711	18.19
504.06	18.25
504.409	18.26
504.758	18.26
505.106	18.3
505.455	18.3
505.803	18.34
506.152	18.35
506.5	18.37
506.849	18.42
507.197	18.45
507.546	18.47
507.894	18.5
508.242	18.53
508.59	18.57
508.939	18.55
509.287	18.55
509.635	18.58
509.983	18.59
510.331	18.63
510.679	18.66
511.027	18.68
511.375	18.7
511.723	18.74
512.07	18.78
512.418	18.81
512.766	18.84
513.114	18.88
513.461	18.91
513.809	18.93
514.156	18.93
514.504	18.94
514.851	18.94
515.199	18.97
515.546	18.97
515.893	18.99
516.241	19.04
516.588	19.06
516.935	19.09
517.282	19.1
517.63	19.11
517.977	19.13
518.324	19.13
518.671	19.12
519.018	19.13
519.365	19.12
519.711	19.14
520.058	19.15
520.405	19.12
520.752	19.1
521.099	19.1
521.445	19.11
521.792	19.09
522.138	19.08
522.485	19.06
522.832	19.06
523.178	19.04
523.524	19.03
523.871	19.01
524.217	18.97
524.563	18.94
524.91	18.9
525.256	18.9
525.602	18.92
525.948	18.91
526.294	18.89
526.64	18.88
526.986	18.86
527.332	18.85
527.678	18.85
528.024	18.86
528.37	18.86
528.716	18.86
529.061	18.88
529.407	18.89
529.753	18.88
530.098	18.88
530.444	18.88
530.789	18.87
531.135	18.88
531.48	18.89
531.826	18.9
532.171	18.92
532.516	18.91
532.862	18.87
533.207	18.86
533.552	18.87
533.897	18.87
534.242	18.87
534.587	18.87
534.932	18.89
535.277	18.9
535.622	18.89
535.967	18.89
536.312	18.91
536.657	18.91
537.001	18.9
537.346	18.88
537.691	18.87
538.035	18.85
538.38	18.83
538.724	18.8
539.069	18.79
539.413	18.75
539.758	18.72
540.102	18.71
540.446	18.69
540.791	18.66
541.135	18.65
541.479	18.63
541.823	18.6
542.167	18.57
542.512	18.53
542.856	18.51
543.2	18.48
543.543	18.45
543.887	18.41
544.231	18.4
544.575	18.38
544.919	18.36
545.262	18.33
545.606	18.3
545.95	18.27
546.293	18.22
546.637	18.22
546.98	18.2
547.324	18.17
547.667	18.17
548.011	18.14
548.354	18.1
548.697	18.08
549.04	18.03
549.384	17.98
549.727	17.94
550.07	17.89
550.413	17.85
550.756	17.8
551.099	17.77
551.442	17.72
551.785	17.68
552.128	17.63
552.47	17.58
552.813	17.51
553.156	17.46
553.499	17.42
553.841	17.34
554.184	17.31
554.526	17.27
554.869	17.2
555.211	17.13
555.554	17.07
555.896	17
556.238	16.95
556.581	16.89
556.923	16.83
557.265	16.76
557.607	16.68
557.949	16.64
558.291	16.54
558.633	16.45
558.975	16.38
559.317	16.32
559.659	16.24
560.001	16.19
560.343	16.13
560.685	16.06
561.026	16.01
561.368	15.91
561.71	15.87
562.051	15.75
562.393	15.69
562.734	15.6
563.076	15.54
563.417	15.45
563.759	15.38
564.1	15.32
564.441	15.26
564.782	15.19
565.124	15.1
565.465	15.05
565.806	14.99
566.147	14.91
566.488	14.84
566.829	14.77
567.17	14.71
567.511	14.64
567.851	14.57
568.192	14.5
568.533	14.43
568.874	14.33
569.214	14.3
569.555	14.23
569.895	14.19
570.236	14.11
570.576	14.04
570.917	13.98
571.257	13.9
571.598	13.84
571.938	13.76
572.278	13.68
572.618	13.61
572.959	13.55
573.299	13.49
573.639	13.43
573.979	13.38
574.319	13.3
574.659	13.25
574.999	13.2
575.339	13.15
575.678	13.08
576.018	13.03
576.358	12.93
576.698	12.85
577.037	12.81
577.377	12.74
577.716	12.68
578.056	12.6
578.395	12.54
578.735	12.46
579.074	12.41
579.413	12.37
579.753	12.3
580.092	12.24
580.431	12.19
580.77	12.17
581.109	12.11
581.448	12.05
581.787	12
582.126	11.95
582.465	11.87
582.804	11.83
583.143	11.79
583.482	11.75
583.82	11.73
584.159	11.67
584.498	11.61
584.836	11.6
585.175	11.58
585.514	11.53
585.852	11.5
586.19	11.47
586.529	11.41
586.867	11.37
587.205	11.34
587.544	11.27
587.882	11.2
588.22	11.17
588.558	11.14
588.896	11.11
589.234	11.06
589.572	11.05
589.91	11.02
590.248	10.99
590.586	10.95
590.924	10.91
591.262	10.85
591.599	10.82
591.937	10.75
592.275	10.71
592.612	10.69
592.95	10.63
593.287	10.56
593.625	10.52
593.962	10.48
594.299	10.43
594.637	10.41
594.974	10.38
595.311	10.34
595.648	10.32
595.985	10.29
596.322	10.24
596.659	10.2
596.996	10.14
597.333	10.1
597.67	10.06
598.007	10.01
598.344	10.01
598.681	9.98
599.017	9.96
599.354	9.93
599.691	9.87
600.027	9.83
600.364	9.8
600.7	9.76
601.037	9.73
601.373	9.71
601.71	9.67
602.046	9.65
602.382	9.63
602.718	9.58
603.054	9.54
603.391	9.53
603.727	9.51
604.063	9.49
604.399	9.47
604.735	9.47
605.071	9.45
605.406	9.41
605.742	9.4
606.078	9.37
606.414	9.35
606.749	9.32
607.085	9.31
607.421	9.29
607.756	9.28
608.092	9.25
608.427	9.2
608.762	9.18
609.098	9.15
609.433	9.11
609.768	9.09
610.104	9.04
610.439	9.03
610.774	9
611.109	8.96
611.444	8.95
611.779	8.87
612.114	8.86
612.449	8.83
612.784	8.76
613.118	8.72
613.453	8.67
613.788	8.67
614.123	8.61
614.457	8.57
614.792	8.53
615.126	8.48
615.461	8.48
615.795	8.43
616.13	8.41
616.464	8.38
616.798	8.36
617.132	8.37
617.467	8.34
617.801	8.34
618.135	8.32
618.469	8.32
618.803	8.33
619.137	8.3
619.471	8.28
619.805	8.29
620.139	8.29
620.472	8.29
620.806	8.26
621.14	8.27
621.473	8.28
621.807	8.28
622.141	8.26
622.474	8.23
622.808	8.25
623.141	8.25
623.474	8.28
623.808	8.27
624.141	8.27
624.474	8.25
624.807	8.22
625.141	8.23
625.474	8.21
625.807	8.23
626.14	8.26
626.473	8.26
626.806	8.24
627.138	8.22
627.471	8.23
627.804	8.2
628.137	8.19
628.469	8.17
628.802	8.16
629.135	8.15
629.467	8.12
629.8	8.09
630.132	8.06
630.465	8.04
630.797	8.03
631.129	8
631.461	7.98
631.794	7.99
632.126	7.96
632.458	7.94
632.79	7.92
633.122	7.9
633.454	7.9
633.786	7.91
634.118	7.94
634.45	7.92
634.781	7.91
635.113	7.87
635.445	7.84
635.777	7.86
636.108	7.85
636.44	7.85
636.771	7.86
637.103	7.84
637.434	7.78
637.765	7.76
638.097	7.75
638.428	7.74
638.759	7.71
639.09	7.7
639.422	7.67
639.753	7.68
640.084	7.65
640.415	7.61
640.746	7.59
641.077	7.54
641.407	7.53
641.738	7.52
642.069	7.53
642.4	7.53
642.73	7.51
643.061	7.52
643.392	7.52
643.722	7.48
644.053	7.52
644.383	7.55
644.713	7.54
645.044	7.54
645.374	7.52
645.704	7.51
646.034	7.51
646.365	7.49
646.695	7.49
647.025	7.51
647.355	7.51
647.685	7.53
648.015	7.55
648.344	7.56
648.674	7.6
649.004	7.63
649.334	7.66
649.663	7.66
649.993	7.67
650.323	7.69
650.652	7.72
650.982	7.66
651.311	7.64
651.64	7.62
651.97	7.63
652.299	7.66
652.628	7.66
652.958	7.67
653.287	7.7
653.616	7.66
653.945	7.65
654.274	7.67
