Data from Anodorhynchus_glaucus_45_90_belly_Reflection_2.txt Node
Date: Wed Mar 17 16:21:29 GMT-03:00 2021
User: Darío
Spectrometer: USB2E3644
Trigger mode: 4
Integration Time (sec): 2.810000E-1
Scans to average: 10
Electric dark correction enabled: true
Nonlinearity correction enabled: false
Boxcar width: 10
XAxis mode: Wavelengths
Number of Pixels in Spectrum: 2048
>>>>>Begin Spectral Data<<<<<
178.315	143.02
178.696	140.34
179.076	123.6
179.457	132.43
179.838	179.72
180.218	129.61
180.599	111.16
180.979	283.33
181.36	293.79
181.74	203.72
182.121	135.29
182.501	110.91
182.881	114.9
183.262	120.49
183.642	114.06
184.022	120.33
184.402	131.05
184.783	144.62
185.163	143.59
185.543	154.4
185.923	148.41
186.303	140.8
186.683	138.99
187.063	133.35
187.443	132.74
187.823	137.41
188.203	131.1
188.583	126.88
188.963	128.31
189.343	127.47
189.723	126.21
190.102	127.67
190.482	127.73
190.862	130.07
191.242	134.37
191.621	141.59
192.001	145.2
192.38	145.09
192.76	144.4
193.14	145.67
193.519	146.44
193.898	147.59
194.278	149.68
194.657	149.6
195.037	150.01
195.416	148.08
195.795	145.38
196.175	149.52
196.554	151.65
196.933	148.66
197.312	150.41
197.692	154.85
198.071	157.4
198.45	158.6
198.829	158.23
199.208	158.01
199.587	154.53
199.966	150.24
200.345	145.88
200.724	142.11
201.103	142.05
201.482	141.82
201.86	143.11
202.239	142.82
202.618	144.17
202.997	146.66
203.375	152.19
203.754	157.89
204.133	156.44
204.511	157.25
204.89	161.76
205.269	162.12
205.647	157.01
206.026	155.29
206.404	155.53
206.782	154.63
207.161	155.07
207.539	159.71
207.918	166.89
208.296	175.84
208.674	180.44
209.052	180.98
209.431	184.42
209.809	186.44
210.187	186.46
210.565	189.71
210.943	195.61
211.321	201.66
211.699	196.65
212.077	194.08
212.455	203.97
212.833	200.6
213.211	195.75
213.589	200.05
213.967	204.21
214.345	204.52
214.722	210.11
215.1	209.12
215.478	211.77
215.855	212.77
216.233	209.45
216.611	216
216.988	213.44
217.366	215.53
217.743	216.29
218.121	215.15
218.498	209.82
218.876	200.05
219.253	191.17
219.631	192.08
220.008	197.19
220.385	192.24
220.762	199.17
221.14	200.05
221.517	202.73
221.894	205.27
222.271	211.06
222.648	214.16
223.025	215.8
223.402	204.86
223.78	197.79
224.157	187.74
224.533	178.1
224.91	178.59
225.287	179.5
225.664	181.16
226.041	183.81
226.418	190.15
226.795	194.13
227.171	208.31
227.548	215.03
227.925	211.87
228.301	210.91
228.678	203.57
229.055	207.18
229.431	209.24
229.808	206.85
230.184	209.15
230.561	209.51
230.937	212.09
231.313	224.26
231.69	221.94
232.066	232.97
232.442	244.06
232.819	250.27
233.195	249.91
233.571	253.74
233.947	266.27
234.323	280.12
234.699	300.14
235.075	293.08
235.451	308.45
235.827	336.73
236.203	351.22
236.579	381.83
236.955	408.59
237.331	452.71
237.707	544.05
238.083	676.55
238.459	1016.71
238.834	4367.42
239.21	-3131.5
239.586	-787.67
239.961	-598.12
240.337	-450.38
240.713	-410.61
241.088	-373.63
241.464	-381.63
241.839	-383.89
242.215	-353.55
242.59	-278.35
242.965	-194.32
243.341	-125.86
243.716	-91.94
244.091	-71.14
244.467	-59.65
244.842	-52.18
245.217	-46.95
245.592	-44.66
245.967	-45.06
246.343	-44.73
246.718	-44.41
247.093	-42.52
247.468	-41.71
247.843	-40.05
248.218	-37.68
248.593	-36.18
248.967	-35.78
249.342	-34.77
249.717	-32.65
250.092	-31.73
250.467	-31.93
250.841	-32.91
251.216	-37.21
251.591	-44.37
251.965	-51.32
252.34	-56.51
252.714	-58.06
253.089	-62.02
253.463	-62.71
253.838	-61.09
254.212	-57.85
254.587	-55.37
254.961	-53.37
255.335	-49.06
255.71	-40.99
256.084	-32.89
256.458	-26.32
256.832	-21.67
257.206	-18.59
257.581	-17.15
257.955	-16.67
258.329	-16.3
258.703	-15.89
259.077	-15.19
259.451	-14.26
259.825	-13.83
260.199	-14.53
260.572	-15.79
260.946	-16.1
261.32	-15.45
261.694	-14.61
262.068	-14.48
262.441	-13.91
262.815	-13.58
263.189	-13.43
263.562	-13.69
263.936	-14.46
264.309	-15.87
264.683	-17.12
265.056	-17.37
265.43	-17.49
265.803	-17.1
266.176	-16.85
266.55	-16.5
266.923	-15.92
267.296	-15.08
267.67	-14.37
268.043	-12.7
268.416	-10.59
268.789	-8.59
269.162	-8.29
269.535	-7.89
269.908	-7.33
270.281	-7.11
270.654	-7.04
271.027	-6.64
271.4	-6.3
271.773	-6.25
272.146	-6.13
272.519	-6.24
272.891	-6.19
273.264	-6.26
273.637	-6.33
274.01	-5.87
274.382	-5.69
274.755	-5.76
275.127	-5.56
275.5	-5.41
275.872	-5.57
276.245	-6
276.617	-6.44
276.99	-6.33
277.362	-6.06
277.734	-5.99
278.107	-6.04
278.479	-5.48
278.851	-5.67
279.223	-5.74
279.596	-5.92
279.968	-5.53
280.34	-5.5
280.712	-5.56
281.084	-5.16
281.456	-5.09
281.828	-5.27
282.2	-4.94
282.572	-4.8
282.944	-4.62
283.315	-4.54
283.687	-4.29
284.059	-4.3
284.431	-4.42
284.802	-4.17
285.174	-3.93
285.546	-3.54
285.917	-3.06
286.289	-3.09
286.66	-3.07
287.032	-3.15
287.403	-3.33
287.775	-3.76
288.146	-3.97
288.518	-3.81
288.889	-3.57
289.26	-3.11
289.632	-2.9
290.003	-3.09
290.374	-3.17
290.745	-3.16
291.116	-2.85
291.487	-2.81
291.858	-2.72
292.229	-2.86
292.6	-2.81
292.971	-2.76
293.342	-2.9
293.713	-2.76
294.084	-2.37
294.455	-2.04
294.826	-1.65
295.196	-1.35
295.567	-1.16
295.938	-0.91
296.308	-1.13
296.679	-1.47
297.05	-1.56
297.42	-1.48
297.791	-1.38
298.161	-0.88
298.532	-0.95
298.902	-1.02
299.272	-1.03
299.643	-0.96
300.013	-0.51
300.383	-0.36
300.754	-0.44
301.124	-0.35
301.494	-0.58
301.864	-0.77
302.234	-0.74
302.604	-0.96
302.974	-1.05
303.344	-1.14
303.714	-0.81
304.084	-0.58
304.454	-0.6
304.824	-0.67
305.194	-0.74
305.563	-0.5
305.933	-0.52
306.303	-0.31
306.673	-0.08
307.042	0.03
307.412	0.27
307.781	0.45
308.151	0.47
308.521	0.44
308.89	0.49
309.259	0.62
309.629	0.71
309.998	0.9
310.368	1.03
310.737	1.09
311.106	1.1
311.475	0.99
311.845	0.95
312.214	1.11
312.583	1.24
312.952	1.28
313.321	1.36
313.69	1.41
314.059	1.54
314.428	1.42
314.797	1.45
315.166	1.56
315.535	1.33
315.904	1.4
316.272	1.73
316.641	1.76
317.01	1.79
317.379	1.81
317.747	1.72
318.116	1.97
318.484	2.1
318.853	2.07
319.221	1.96
319.59	2.18
319.958	2.37
320.327	2.44
320.695	2.63
321.063	2.59
321.432	2.78
321.8	3.02
322.168	3.19
322.536	3.44
322.905	3.54
323.273	3.79
323.641	3.88
324.009	3.9
324.377	3.99
324.745	4.03
325.113	4.19
325.481	4.32
325.849	4.22
326.216	4.34
326.584	4.73
326.952	4.98
327.32	5.04
327.687	5.18
328.055	5.39
328.423	5.46
328.79	5.59
329.158	5.57
329.525	5.52
329.893	5.63
330.26	5.72
330.628	5.75
330.995	5.79
331.362	5.77
331.73	5.87
332.097	6.09
332.464	6.34
332.831	6.48
333.199	6.61
333.566	6.84
333.933	6.79
334.3	6.78
334.667	6.92
335.034	6.99
335.401	6.91
335.768	6.83
336.135	6.96
336.502	7.19
336.868	7.31
337.235	7.47
337.602	7.56
337.969	7.63
338.335	7.73
338.702	7.86
339.069	7.98
339.435	8.05
339.802	8.11
340.168	8.12
340.535	8.11
340.901	8.04
341.267	7.87
341.634	7.94
342	7.92
342.366	7.81
342.733	7.89
343.099	8.03
343.465	8.18
343.831	8.2
344.197	8.08
344.563	8.02
344.929	8.01
345.295	8.12
345.661	8.18
346.027	8.35
346.393	8.39
346.759	8.43
347.125	8.47
347.491	8.5
347.856	8.57
348.222	8.57
348.588	8.65
348.953	8.84
349.319	8.98
349.684	9.07
350.05	9.2
350.415	9.3
350.781	9.36
351.146	9.3
351.512	9.35
351.877	9.49
352.242	9.62
352.608	9.7
352.973	9.63
353.338	9.67
353.703	9.6
354.068	9.58
354.433	9.65
354.798	9.7
355.164	9.75
355.528	9.79
355.893	9.89
356.258	9.99
356.623	10
356.988	10.05
357.353	10.15
357.718	10.2
358.082	10.14
358.447	10.17
358.812	10.3
359.176	10.43
359.541	10.46
359.905	10.46
360.27	10.48
360.634	10.49
360.999	10.53
361.363	10.61
361.728	10.71
362.092	10.75
362.456	10.77
362.821	10.86
363.185	10.91
363.549	10.95
363.913	10.93
364.277	11.04
364.641	11.09
365.005	11.11
365.369	11.24
365.733	11.37
366.097	11.46
366.461	11.51
366.825	11.53
367.189	11.65
367.553	11.8
367.916	11.95
368.28	12.12
368.644	12.21
369.007	12.3
369.371	12.32
369.734	12.36
370.098	12.42
370.461	12.4
370.825	12.47
371.188	12.51
371.552	12.65
371.915	12.68
372.278	12.73
372.642	12.83
373.005	12.84
373.368	12.85
373.731	12.9
374.094	12.98
374.457	13.02
374.82	13.02
375.183	13.04
375.546	13.04
375.909	13.13
376.272	13.16
376.635	13.15
376.998	13.23
377.361	13.32
377.723	13.4
378.086	13.46
378.449	13.48
378.811	13.59
379.174	13.6
379.537	13.64
379.899	13.67
380.262	13.75
380.624	13.78
380.987	13.82
381.349	13.89
381.711	13.93
382.074	13.94
382.436	14.02
382.798	14.21
383.16	14.14
383.522	14.02
383.884	14.04
384.247	14.14
384.609	14.15
384.971	14.18
385.333	14.22
385.695	14.31
386.056	14.39
386.418	14.35
386.78	14.48
387.142	14.46
387.504	14.53
387.865	14.51
388.227	14.54
388.589	14.6
388.95	14.59
389.312	14.57
389.673	14.63
390.035	14.61
390.396	14.53
390.758	14.58
391.119	14.69
391.48	14.7
391.842	14.7
392.203	14.71
392.564	14.72
392.925	14.7
393.286	14.65
393.648	14.7
394.009	14.76
394.37	14.71
394.731	14.79
395.092	14.81
395.452	14.83
395.813	14.84
396.174	14.84
396.535	14.86
396.896	14.93
397.257	14.93
397.617	14.96
397.978	15.02
398.338	15.01
398.699	15.04
399.06	15.13
399.42	15.11
399.781	15.15
400.141	15.15
400.501	15.21
400.862	15.25
401.222	15.19
401.582	15.2
401.943	15.24
402.303	15.25
402.663	15.29
403.023	15.31
403.383	15.37
403.743	15.39
404.103	15.46
404.463	15.49
404.823	15.53
405.183	15.56
405.543	15.57
405.903	15.64
406.262	15.63
406.622	15.62
406.982	15.64
407.342	15.68
407.701	15.71
408.061	15.72
408.42	15.78
408.78	15.83
409.139	15.85
409.499	15.85
409.858	15.84
410.217	15.83
410.577	15.84
410.936	15.85
411.295	15.85
411.655	15.82
412.014	15.81
412.373	15.83
412.732	15.83
413.091	15.8
413.45	15.84
413.809	15.86
414.168	15.84
414.527	15.86
414.886	15.86
415.245	15.88
415.603	15.87
415.962	15.83
416.321	15.79
416.679	15.76
417.038	15.76
417.397	15.77
417.755	15.75
418.114	15.76
418.472	15.75
418.831	15.78
419.189	15.77
419.547	15.75
419.906	15.74
420.264	15.75
420.622	15.76
420.981	15.75
421.339	15.75
421.697	15.76
422.055	15.79
422.413	15.79
422.771	15.79
423.129	15.81
423.487	15.83
423.845	15.88
424.203	15.91
424.56	15.92
424.918	15.94
425.276	15.98
425.634	16
425.991	16.04
426.349	16.07
426.707	16.12
427.064	16.16
427.422	16.19
427.779	16.25
428.137	16.28
428.494	16.34
428.851	16.41
429.209	16.45
429.566	16.46
429.923	16.5
430.28	16.52
430.637	16.58
430.995	16.57
431.352	16.56
431.709	16.59
432.066	16.62
432.423	16.62
432.78	16.65
433.137	16.68
433.493	16.66
433.85	16.71
434.207	16.65
434.564	16.67
434.92	16.67
435.277	16.69
435.634	16.72
435.99	16.72
436.347	16.71
436.703	16.74
437.06	16.73
437.416	16.75
437.773	16.74
438.129	16.71
438.485	16.75
438.841	16.74
439.198	16.75
439.554	16.76
439.91	16.79
440.266	16.79
440.622	16.79
440.978	16.82
441.334	16.8
441.69	16.84
442.046	16.85
442.402	16.87
442.758	16.86
443.113	16.85
443.469	16.84
443.825	16.85
444.181	16.85
444.536	16.9
444.892	16.91
445.247	16.93
445.603	16.95
445.958	16.97
446.314	16.99
446.669	17.01
447.025	17.01
447.38	17.01
447.735	17.02
448.09	17.02
448.446	17.04
448.801	17.04
449.156	17.07
449.511	17.08
449.866	17.1
450.221	17.15
450.576	17.2
450.931	17.24
451.286	17.28
451.641	17.3
451.995	17.32
452.35	17.36
452.705	17.38
453.06	17.41
453.414	17.45
453.769	17.46
454.123	17.48
454.478	17.52
454.832	17.56
455.187	17.55
455.541	17.59
455.896	17.59
456.25	17.63
456.604	17.64
456.958	17.64
457.313	17.68
457.667	17.7
458.021	17.71
458.375	17.72
458.729	17.74
459.083	17.75
459.437	17.76
459.791	17.75
460.145	17.79
460.499	17.8
460.852	17.81
461.206	17.85
461.56	17.87
461.914	17.87
462.267	17.88
462.621	17.89
462.974	17.9
463.328	17.94
463.681	17.95
464.035	17.97
464.388	18.02
464.742	18.03
465.095	18.03
465.448	18.06
465.801	18.08
466.155	18.12
466.508	18.14
466.861	18.15
467.214	18.17
467.567	18.16
467.92	18.16
468.273	18.16
468.626	18.18
468.979	18.19
469.332	18.21
469.684	18.22
470.037	18.29
470.39	18.31
470.743	18.33
471.095	18.37
471.448	18.41
471.8	18.43
472.153	18.43
472.505	18.47
472.858	18.49
473.21	18.53
473.562	18.56
473.915	18.6
474.267	18.62
474.619	18.66
474.971	18.68
475.324	18.75
475.676	18.8
476.028	18.8
476.38	18.82
476.732	18.86
477.084	18.89
477.436	18.88
477.787	18.89
478.139	18.9
478.491	18.92
478.843	18.91
479.195	18.97
479.546	19.01
479.898	19.09
480.249	19.22
480.601	19.36
480.952	19.44
481.304	19.47
481.655	19.48
482.007	19.48
482.358	19.49
482.709	19.48
483.061	19.49
483.412	19.52
483.763	19.54
484.114	19.58
484.465	19.6
484.816	19.63
485.167	19.65
485.518	19.66
485.869	19.67
486.22	19.69
486.571	19.69
486.922	19.7
487.272	19.71
487.623	19.7
487.974	19.67
488.324	19.65
488.675	19.67
489.025	19.7
489.376	19.73
489.726	19.76
490.077	19.79
490.427	19.8
490.778	19.81
491.128	19.83
491.478	19.81
491.828	19.83
492.179	19.84
492.529	19.87
492.879	19.9
493.229	19.96
493.579	19.99
493.929	20
494.279	20.04
494.629	20.07
494.979	20.08
495.328	20.09
495.678	20.11
496.028	20.15
496.378	20.19
496.727	20.23
497.077	20.28
497.426	20.34
497.776	20.37
498.125	20.41
498.475	20.42
498.824	20.48
499.174	20.5
499.523	20.53
499.872	20.56
500.221	20.6
500.571	20.64
500.92	20.69
501.269	20.74
501.618	20.78
501.967	20.81
502.316	20.85
502.665	20.89
503.014	20.94
503.363	20.96
503.711	21.01
504.06	21.02
504.409	21.06
504.758	21.05
505.106	21.09
505.455	21.12
505.803	21.16
506.152	21.17
506.5	21.22
506.849	21.26
507.197	21.28
507.546	21.29
507.894	21.31
508.242	21.34
508.59	21.36
508.939	21.4
509.287	21.42
509.635	21.46
509.983	21.5
510.331	21.51
510.679	21.54
511.027	21.55
511.375	21.59
511.723	21.6
512.07	21.61
512.418	21.64
512.766	21.67
513.114	21.71
513.461	21.72
513.809	21.74
514.156	21.76
514.504	21.81
514.851	21.84
515.199	21.9
515.546	21.94
515.893	21.98
516.241	21.99
516.588	22.01
516.935	22.03
517.282	22.03
517.63	22.05
517.977	22.08
518.324	22.09
518.671	22.13
519.018	22.17
519.365	22.21
519.711	22.22
520.058	22.23
520.405	22.24
520.752	22.27
521.099	22.3
521.445	22.35
521.792	22.36
522.138	22.39
522.485	22.39
522.832	22.4
523.178	22.42
523.524	22.44
523.871	22.48
524.217	22.51
524.563	22.6
524.91	22.72
525.256	22.83
525.602	22.93
525.948	22.95
526.294	22.97
526.64	22.96
526.986	22.97
527.332	22.97
527.678	22.99
528.024	23.01
528.37	23.04
528.716	23.04
529.061	23.05
529.407	23.08
529.753	23.12
530.098	23.15
530.444	23.18
530.789	23.2
531.135	23.2
531.48	23.21
531.826	23.21
532.171	23.18
532.516	23.16
532.862	23.14
533.207	23.16
533.552	23.17
533.897	23.21
534.242	23.23
534.587	23.26
534.932	23.3
535.277	23.3
535.622	23.29
535.967	23.32
536.312	23.35
536.657	23.36
537.001	23.37
537.346	23.41
537.691	23.47
538.035	23.55
538.38	23.62
538.724	23.64
539.069	23.66
539.413	23.68
539.758	23.69
540.102	23.7
540.446	23.69
540.791	23.71
541.135	23.72
541.479	23.74
541.823	23.77
542.167	23.76
542.512	23.8
542.856	23.79
543.2	23.79
543.543	23.79
543.887	23.79
544.231	23.78
544.575	23.75
544.919	23.71
545.262	23.68
545.606	23.63
545.95	23.6
546.293	23.6
546.637	23.58
546.98	23.58
547.324	23.55
547.667	23.59
548.011	23.59
548.354	23.59
548.697	23.56
549.04	23.54
549.384	23.54
549.727	23.5
550.07	23.51
550.413	23.51
550.756	23.51
551.099	23.46
551.442	23.42
551.785	23.43
552.128	23.4
552.47	23.38
552.813	23.39
553.156	23.38
553.499	23.36
553.841	23.35
554.184	23.29
554.526	23.27
554.869	23.21
555.211	23.21
555.554	23.18
555.896	23.15
556.238	23.09
556.581	23.04
556.923	22.99
557.265	22.96
557.607	22.89
557.949	22.85
558.291	22.85
558.633	22.83
558.975	22.79
559.317	22.78
559.659	22.75
560.001	22.71
560.343	22.67
560.685	22.62
561.026	22.59
561.368	22.59
561.71	22.56
562.051	22.58
562.393	22.58
562.734	22.55
563.076	22.56
563.417	22.58
563.759	22.56
564.1	22.56
564.441	22.57
564.782	22.53
565.124	22.49
565.465	22.48
565.806	22.46
566.147	22.44
566.488	22.41
566.829	22.38
567.17	22.34
567.511	22.32
567.851	22.32
568.192	22.29
568.533	22.27
568.874	22.25
569.214	22.18
569.555	22.11
569.895	22.08
570.236	22.01
570.576	21.95
570.917	21.91
571.257	21.86
571.598	21.8
571.938	21.8
572.278	21.76
572.618	21.73
572.959	21.68
573.299	21.64
573.639	21.62
573.979	21.6
574.319	21.59
574.659	21.53
574.999	21.47
575.339	21.42
575.678	21.35
576.018	21.28
576.358	21.23
576.698	21.19
577.037	21.15
577.377	21.1
577.716	21.06
578.056	21
578.395	20.92
578.735	20.88
579.074	20.8
579.413	20.71
579.753	20.64
580.092	20.59
580.431	20.51
580.77	20.44
581.109	20.36
581.448	20.29
581.787	20.27
582.126	20.25
582.465	20.21
582.804	20.16
583.143	20.18
583.482	20.14
583.82	20.05
584.159	19.99
584.498	19.95
584.836	19.91
585.175	19.88
585.514	19.85
585.852	19.82
586.19	19.78
586.529	19.75
586.867	19.71
587.205	19.69
587.544	19.68
587.882	19.62
588.22	19.59
588.558	19.58
588.896	19.57
589.234	19.52
589.572	19.47
589.91	19.41
590.248	19.31
590.586	19.28
590.924	19.27
591.262	19.23
591.599	19.18
591.937	19.17
592.275	19.11
592.612	19.09
592.95	19.03
593.287	19.07
593.625	19.06
593.962	19.04
594.299	18.99
594.637	18.96
594.974	18.93
595.311	18.92
595.648	18.85
595.985	18.79
596.322	18.75
596.659	18.77
596.996	18.78
597.333	18.7
597.67	18.64
598.007	18.6
598.344	18.55
598.681	18.59
599.017	18.49
599.354	18.47
599.691	18.45
600.027	18.46
600.364	18.36
600.7	18.3
601.037	18.25
601.373	18.23
601.71	18.2
602.046	18.2
602.382	18.13
602.718	18.13
603.054	18.08
603.391	18.06
603.727	18
604.063	17.97
604.399	17.96
604.735	17.98
605.071	17.95
605.406	17.96
605.742	17.92
606.078	17.95
606.414	17.91
606.749	17.88
607.085	17.81
607.421	17.77
607.756	17.75
608.092	17.69
608.427	17.64
608.762	17.57
609.098	17.47
609.433	17.45
609.768	17.38
610.104	17.37
610.439	17.32
610.774	17.3
611.109	17.2
611.444	17.19
611.779	17.12
612.114	17.1
612.449	17.05
612.784	16.95
613.118	16.86
613.453	16.83
613.788	16.77
614.123	16.7
614.457	16.67
614.792	16.61
615.126	16.53
615.461	16.45
615.795	16.43
616.13	16.45
616.464	16.42
616.798	16.37
617.132	16.35
617.467	16.3
617.801	16.23
618.135	16.27
618.469	16.26
618.803	16.23
619.137	16.22
619.471	16.18
619.805	16.16
620.139	16.15
620.472	16.14
620.806	16.09
621.14	16.05
621.473	16.03
621.807	16
622.141	16.03
622.474	16
622.808	15.99
623.141	15.96
623.474	15.98
623.808	15.97
624.141	15.98
624.474	15.99
624.807	15.94
625.141	15.9
625.474	15.88
625.807	15.89
626.14	15.84
626.473	15.85
626.806	15.85
627.138	15.87
627.471	15.8
627.804	15.79
628.137	15.8
628.469	15.73
628.802	15.69
629.135	15.65
629.467	15.63
629.8	15.6
630.132	15.56
630.465	15.51
630.797	15.53
631.129	15.49
631.461	15.46
631.794	15.52
632.126	15.5
632.458	15.43
632.79	15.41
633.122	15.4
633.454	15.32
633.786	15.3
634.118	15.26
634.45	15.32
634.781	15.32
635.113	15.29
635.445	15.29
635.777	15.32
636.108	15.32
636.44	15.33
636.771	15.36
637.103	15.36
637.434	15.36
637.765	15.28
638.097	15.29
638.428	15.26
638.759	15.18
639.09	15.19
639.422	15.22
639.753	15.19
640.084	15.14
640.415	15.19
640.746	15.15
641.077	15.09
641.407	15.03
641.738	15.02
642.069	15.07
642.4	15.09
642.73	15.11
643.061	15.1
643.392	15.07
643.722	15.01
644.053	15.02
644.383	14.99
644.713	15
645.044	14.95
645.374	14.98
645.704	15.01
646.034	15.02
646.365	15.02
646.695	15.07
647.025	15.14
647.355	15.09
647.685	15.06
648.015	15.06
648.344	15.11
