Data from palm_tumJ_d_45_25_Reflection_00002.txt Node
Date: Fri Feb 11 15:27:40 ART 2022
User: Nati
Spectrometer: USB2E3644
Trigger mode: 4
Integration Time (sec): 3,520000E-1
Scans to average: 10
Electric dark correction enabled: true
Nonlinearity correction enabled: false
Boxcar width: 10
XAxis mode: Wavelengths
Number of Pixels in Spectrum: 2048
>>>>>Begin Spectral Data<<<<<
178,315	87,86
178,696	93,5
179,076	86,79
179,457	95,33
179,838	126,26
180,218	110,28
180,599	-11,27
180,979	0
181,36	123,86
181,74	120,21
182,121	130,18
182,501	148,06
182,881	151,21
183,262	142,06
183,642	135,69
184,022	133,27
184,402	129,21
184,783	123,94
185,163	117,06
185,543	119,75
185,923	124,06
186,303	123,29
186,683	124,36
187,063	124,14
187,443	127,76
187,823	130,27
188,203	130,57
188,583	130,74
188,963	129,2
189,343	126,59
189,723	126,76
190,102	124,01
190,482	120,2
190,862	118,07
191,242	116,79
191,621	117,84
192,001	116,7
192,38	116,15
192,76	116,13
193,14	115,49
193,519	111,24
193,898	108,76
194,278	107,15
194,657	107,06
195,037	105,77
195,416	105,29
195,795	108,3
196,175	107,91
196,554	108,17
196,933	111,98
197,312	114,02
197,692	112,45
198,071	112,72
198,45	115,18
198,829	117,15
199,208	117,67
199,587	115,32
199,966	114,54
200,345	113,29
200,724	112,58
201,103	113,35
201,482	115,01
201,86	115,4
202,239	118,78
202,618	117,57
202,997	118,86
203,375	119,7
203,754	115,81
204,133	112,93
204,511	111,02
204,89	108,38
205,269	105,71
205,647	105,78
206,026	107,02
206,404	106,91
206,782	105,67
207,161	105,95
207,539	107,41
207,918	107,53
208,296	107,14
208,674	107,85
209,052	108,93
209,431	109,39
209,809	108,64
210,187	107,26
210,565	110,38
210,943	107,97
211,321	107,96
211,699	110,79
212,077	111,02
212,455	108,38
212,833	107,8
213,211	108,46
213,589	109,39
213,967	108,24
214,345	106,41
214,722	106,78
215,1	108,17
215,478	107,61
215,855	107,43
216,233	108,08
216,611	108,16
216,988	107,99
217,366	106,46
217,743	107,35
218,121	106,97
218,498	107,28
218,876	107,99
219,253	106,37
219,631	105
220,008	107,68
220,385	109,12
220,762	106,53
221,14	105,55
221,517	101,24
221,894	97,88
222,271	97,35
222,648	96,15
223,025	96,61
223,402	98,87
223,78	101,66
224,157	101,64
224,533	99,76
224,91	99,32
225,287	101,07
225,664	100,19
226,041	100,64
226,418	98,18
226,795	99,74
227,171	99,07
227,548	98,16
227,925	97,26
228,301	99,74
228,678	101,6
229,055	107,79
229,431	116,17
229,808	122,16
230,184	126,77
230,561	130,34
230,937	134,87
231,313	133,95
231,69	131,49
232,066	137,21
232,442	141,35
232,819	139,66
233,195	138,14
233,571	143,26
233,947	139,91
234,323	144,97
234,699	153,35
235,075	159,57
235,451	162,22
235,827	164,81
236,203	166,06
236,579	166,76
236,955	163,74
237,331	167,69
237,707	178,33
238,083	187,35
238,459	208,3
238,834	228,24
239,21	280,73
239,586	345,58
239,961	408,79
240,337	539,13
240,713	872,37
241,088	3969,81
241,464	-3360,66
241,839	-2007,77
242,215	-1272,39
242,59	-610,46
242,965	-223,75
243,341	-100,56
243,716	-67,07
244,091	-48,51
244,467	-36,61
244,842	-27,65
245,217	-21,63
245,592	-18,67
245,967	-21,59
246,343	-23,06
246,718	-26,52
247,093	-29,83
247,468	-31,89
247,843	-30,7
248,218	-26,34
248,593	-23,56
248,967	-21,33
249,342	-17,72
249,717	-17,51
250,092	-17,26
250,467	-19,23
250,841	-22,22
251,216	-25,94
251,591	-26,59
251,965	-28,27
252,34	-33,02
252,714	-40,82
253,089	-49,06
253,463	-50,71
253,838	-42,1
254,212	-35,44
254,587	-26,24
254,961	-21,02
255,335	-14,87
255,71	-10,13
256,084	-4,72
256,458	-0,55
256,832	2,67
257,206	4,25
257,581	6,08
257,955	6,77
258,329	7,62
258,703	9,07
259,077	9,44
259,451	8,64
259,825	7,47
260,199	7,65
260,572	8,81
260,946	9,8
261,32	10,46
261,694	10,29
262,068	9,97
262,441	9,73
262,815	10,38
263,189	10,62
263,562	10,62
263,936	10,23
264,309	9,65
264,683	8,35
265,056	7,66
265,43	7,58
265,803	7,57
266,176	7,47
266,55	7,02
266,923	6,8
267,296	7,77
267,67	8,88
268,043	9,27
268,416	9,65
268,789	10,05
269,162	10,61
269,535	11,21
269,908	12,09
270,281	13,08
270,654	13,4
271,027	13,6
271,4	13,59
271,773	12,83
272,146	12,45
272,519	12,56
272,891	12,44
273,264	12,72
273,637	12,6
274,01	12,59
274,382	12,99
274,755	13,36
275,127	13,08
275,5	12,39
275,872	12,27
276,245	11,84
276,617	11,41
276,99	11,43
277,362	11,67
277,734	11,76
278,107	11,9
278,479	11,92
278,851	12,26
279,223	12,8
279,596	12,92
279,968	12,52
280,34	12,14
280,712	11,86
281,084	11,58
281,456	12,32
281,828	12,9
282,2	13,9
282,572	14,38
282,944	15,38
283,315	16,26
283,687	16,67
284,059	17,01
284,431	17,2
284,802	17,39
285,174	17,56
285,546	17,46
285,917	17
286,289	16,97
286,66	16,78
287,032	16,65
287,403	17,05
287,775	17,5
288,146	17,75
288,518	17,8
288,889	18,1
289,26	18,3
289,632	18,72
290,003	18,54
290,374	18,38
290,745	17,69
291,116	17,18
291,487	16,97
291,858	16,78
292,229	16,5
292,6	16,2
292,971	16,16
293,342	16,68
293,713	17,11
294,084	16,99
294,455	17,18
294,826	17,29
295,196	17,29
295,567	17,59
295,938	17,99
296,308	18,42
296,679	18,33
297,05	18,06
297,42	18
297,791	17,72
298,161	17,49
298,532	17,47
298,902	17,72
299,272	18,01
299,643	17,93
300,013	18,24
300,383	18,78
300,754	18,77
301,124	18,07
301,494	17,69
301,864	17,97
302,234	17,94
302,604	17,83
302,974	18,04
303,344	17,64
303,714	17,2
304,084	17,1
304,454	17,46
304,824	17,52
305,194	17,13
305,563	17,31
305,933	17,51
306,303	17,59
306,673	17,64
307,042	17,62
307,412	18,02
307,781	18,29
308,151	18,23
308,521	18,29
308,89	18,77
309,259	18,9
309,629	18,86
309,998	18,66
310,368	18,68
310,737	18,66
311,106	18,8
311,475	18,97
311,845	18,98
312,214	18,71
312,583	18,81
312,952	18,75
313,321	18,73
313,69	18,72
314,059	18,78
314,428	18,97
314,797	19,03
315,166	18,85
315,535	18,8
315,904	18,8
316,272	18,67
316,641	18,42
317,01	18,17
317,379	17,96
317,747	18,02
318,116	17,57
318,484	17,35
318,853	17,37
319,221	17,24
319,59	17,05
319,958	17,3
320,327	17,33
320,695	17,31
321,063	17,2
321,432	17,15
321,8	17,12
322,168	17,01
322,536	17
322,905	17,13
323,273	17,14
323,641	16,98
324,009	17,17
324,377	17,49
324,745	17,7
325,113	17,67
325,481	17,73
325,849	18,07
326,216	18,07
326,584	17,96
326,952	18,24
327,32	18,33
327,687	18,35
328,055	18,41
328,423	18,71
328,79	18,76
329,158	18,83
329,525	18,87
329,893	18,71
330,26	18,68
330,628	18,71
330,995	18,67
331,362	18,74
331,73	18,46
332,097	18,19
332,464	18,17
332,831	18,39
333,199	18,33
333,566	18,44
333,933	18,53
334,3	18,62
334,667	18,43
335,034	18,43
335,401	18,42
335,768	18,43
336,135	18,36
336,502	18,42
336,868	18,52
337,235	18,57
337,602	18,64
337,969	18,71
338,335	18,72
338,702	18,69
339,069	18,64
339,435	18,62
339,802	18,55
340,168	18,5
340,535	18,36
340,901	18,38
341,267	18,26
341,634	18,23
342	18,25
342,366	18,29
342,733	18,41
343,099	18,29
343,465	18,23
343,831	18,24
344,197	18,35
344,563	18,37
344,929	18,35
345,295	18,46
345,661	18,4
346,027	18,35
346,393	18,25
346,759	18,18
347,125	18,35
347,491	18,46
347,856	18,55
348,222	18,55
348,588	18,41
348,953	18,45
349,319	18,47
349,684	18,4
350,05	18,4
350,415	18,26
350,781	18,38
351,146	18,39
351,512	18,42
351,877	18,36
352,242	18,24
352,608	18,2
352,973	18,21
353,338	18,22
353,703	18,25
354,068	18,31
354,433	18,42
354,798	18,41
355,164	18,44
355,528	18,4
355,893	18,42
356,258	18,54
356,623	18,48
356,988	18,5
357,353	18,56
357,718	18,49
358,082	18,54
358,447	18,47
358,812	18,5
359,176	18,51
359,541	18,47
359,905	18,45
360,27	18,52
360,634	18,57
360,999	18,57
361,363	18,58
361,728	18,7
362,092	18,69
362,456	18,66
362,821	18,7
363,185	18,69
363,549	18,68
363,913	18,75
364,277	18,84
364,641	18,83
365,005	18,8
365,369	18,85
365,733	18,9
366,097	18,94
366,461	18,91
366,825	18,83
367,189	18,85
367,553	18,95
367,916	18,99
368,28	18,97
368,644	19,03
369,007	18,99
369,371	18,97
369,734	18,95
370,098	19,01
370,461	18,95
370,825	18,98
371,188	19,03
371,552	19,03
371,915	19,07
372,278	19,09
372,642	19,11
373,005	19,18
373,368	19,15
373,731	19,17
374,094	19,22
374,457	19,25
374,82	19,27
375,183	19,31
375,546	19,32
375,909	19,38
376,272	19,37
376,635	19,45
376,998	19,4
377,361	19,49
377,723	19,53
378,086	19,56
378,449	19,64
378,811	19,69
379,174	19,68
379,537	19,68
379,899	19,71
380,262	19,72
380,624	19,69
380,987	19,71
381,349	19,79
381,711	19,83
382,074	19,86
382,436	19,92
382,798	20,05
383,16	19,91
383,522	19,8
383,884	19,76
384,247	19,8
384,609	19,85
384,971	19,85
385,333	19,85
385,695	19,89
386,056	19,84
386,418	19,79
386,78	19,95
387,142	19,84
387,504	19,78
387,865	19,77
388,227	19,81
388,589	19,86
388,95	19,82
389,312	19,81
389,673	19,93
390,035	19,88
390,396	19,78
390,758	19,84
391,119	19,91
391,48	19,94
391,842	19,85
392,203	19,86
392,564	19,89
392,925	19,88
393,286	19,82
393,648	19,82
394,009	19,88
394,37	19,74
394,731	19,81
395,092	19,85
395,452	19,9
395,813	19,88
396,174	19,85
396,535	19,84
396,896	19,84
397,257	19,77
397,617	19,82
397,978	19,83
398,338	19,82
398,699	19,86
399,06	20,01
399,42	20
399,781	20,04
400,141	19,96
400,501	19,96
400,862	20,05
401,222	20,04
401,582	20,05
401,943	20,08
402,303	20,08
402,663	20,07
403,023	20,07
403,383	20,07
403,743	20,11
404,103	20,15
404,463	20,17
404,823	20,24
405,183	20,25
405,543	20,3
405,903	20,37
406,262	20,36
406,622	20,28
406,982	20,39
407,342	20,41
407,701	20,47
408,061	20,52
408,42	20,56
408,78	20,62
409,139	20,64
409,499	20,65
409,858	20,73
410,217	20,84
410,577	20,85
410,936	20,92
411,295	20,96
411,655	21,01
412,014	21,04
412,373	21,02
412,732	21,03
413,091	21
413,45	21
413,809	21,02
414,168	21,03
414,527	20,98
414,886	20,99
415,245	20,99
415,603	20,98
415,962	20,95
416,321	20,95
416,679	20,94
417,038	20,94
417,397	20,94
417,755	20,94
418,114	20,97
418,472	20,98
418,831	20,97
419,189	20,99
419,547	21
419,906	21,03
420,264	21,05
420,622	21,09
420,981	21,14
421,339	21,18
421,697	21,2
422,055	21,26
422,413	21,29
422,771	21,35
423,129	21,4
423,487	21,47
423,845	21,53
424,203	21,58
424,56	21,65
424,918	21,72
425,276	21,8
425,634	21,88
425,991	21,96
426,349	22,05
426,707	22,12
427,064	22,18
427,422	22,26
427,779	22,4
428,137	22,51
428,494	22,6
428,851	22,7
429,209	22,78
429,566	22,85
429,923	22,95
430,28	22,99
430,637	23,05
430,995	23,05
431,352	23,1
431,709	23,14
432,066	23,21
432,423	23,23
432,78	23,29
433,137	23,33
433,493	23,36
433,85	23,4
434,207	23,37
434,564	23,4
434,92	23,41
435,277	23,42
435,634	23,43
435,99	23,43
436,347	23,48
436,703	23,53
437,06	23,57
437,416	23,59
437,773	23,59
438,129	23,59
438,485	23,67
438,841	23,67
439,198	23,72
439,554	23,73
439,91	23,76
440,266	23,76
440,622	23,77
440,978	23,77
441,334	23,77
441,69	23,82
442,046	23,87
442,402	23,88
442,758	23,88
443,113	23,91
443,469	23,94
443,825	23,94
444,181	23,95
444,536	23,99
444,892	24,02
445,247	24,09
445,603	24,14
445,958	24,16
446,314	24,2
446,669	24,23
447,025	24,28
447,38	24,33
447,735	24,34
448,09	24,38
448,446	24,43
448,801	24,46
449,156	24,51
449,511	24,53
449,866	24,61
450,221	24,7
450,576	24,75
450,931	24,83
451,286	24,9
451,641	24,97
451,995	25,01
452,35	25,09
452,705	25,09
453,06	25,1
453,414	25,12
453,769	25,12
454,123	25,11
454,478	25,1
454,832	25,11
455,187	25,08
455,541	25,06
455,896	25,04
456,25	25,02
456,604	24,98
456,958	24,98
457,313	24,96
457,667	24,94
458,021	24,94
458,375	24,97
458,729	24,98
459,083	24,97
459,437	24,98
459,791	24,95
460,145	24,96
460,499	24,97
460,852	24,94
461,206	24,98
461,56	24,99
461,914	24,99
462,267	24,97
462,621	25,04
462,974	25,06
463,328	25,07
463,681	25,11
464,035	25,15
464,388	25,19
464,742	25,21
465,095	25,24
465,448	25,27
465,801	25,26
466,155	25,27
466,508	25,29
466,861	25,27
467,214	25,29
467,567	25,29
467,92	25,28
468,273	25,3
468,626	25,27
468,979	25,26
469,332	25,26
469,684	25,26
470,037	25,29
470,39	25,29
470,743	25,33
471,095	25,35
471,448	25,38
471,8	25,38
472,153	25,38
472,505	25,38
472,858	25,35
473,21	25,33
473,562	25,32
473,915	25,31
474,267	25,34
474,619	25,34
474,971	25,33
475,324	25,35
475,676	25,39
476,028	25,38
476,38	25,37
476,732	25,34
477,084	25,35
477,436	25,27
477,787	25,24
478,139	25,2
478,491	25,19
478,843	25,13
479,195	25,11
479,546	25,03
479,898	25,01
480,249	25,02
480,601	25,08
480,952	25,08
481,304	25,07
481,655	25,05
482,007	25,03
482,358	25,01
482,709	25
483,061	24,95
483,412	24,95
483,763	24,93
484,114	24,93
484,465	24,91
484,816	24,92
485,167	24,9
485,518	24,9
485,869	24,89
486,22	24,89
486,571	24,9
486,922	24,93
487,272	24,94
487,623	24,91
487,974	24,86
488,324	24,83
488,675	24,81
489,025	24,8
489,376	24,83
489,726	24,84
490,077	24,85
490,427	24,9
490,778	24,93
491,128	24,97
491,478	25,01
491,828	25,08
492,179	25,1
492,529	25,18
492,879	25,23
493,229	25,28
493,579	25,3
493,929	25,32
494,279	25,35
494,629	25,38
494,979	25,44
495,328	25,51
495,678	25,59
496,028	25,7
496,378	25,78
496,727	25,82
497,077	25,9
497,426	25,97
497,776	25,99
498,125	26,06
498,475	26,08
498,824	26,11
499,174	26,13
499,523	26,17
499,872	26,2
500,221	26,24
500,571	26,29
500,92	26,37
501,269	26,46
501,618	26,52
501,967	26,57
502,316	26,63
502,665	26,69
503,014	26,77
503,363	26,82
503,711	26,88
504,06	26,92
504,409	26,97
504,758	26,99
505,106	27,06
505,455	27,12
505,803	27,17
506,152	27,21
506,5	27,26
506,849	27,32
507,197	27,37
507,546	27,43
507,894	27,5
508,242	27,58
508,59	27,61
508,939	27,67
509,287	27,77
509,635	27,84
509,983	27,9
510,331	27,97
510,679	28,07
511,027	28,15
511,375	28,26
511,723	28,34
512,07	28,44
512,418	28,53
512,766	28,61
513,114	28,73
513,461	28,85
513,809	28,97
514,156	29,08
514,504	29,2
514,851	29,3
515,199	29,42
515,546	29,51
515,893	29,63
516,241	29,74
516,588	29,82
516,935	29,94
517,282	30,02
517,63	30,1
517,977	30,17
518,324	30,28
518,671	30,34
519,018	30,45
519,365	30,52
519,711	30,63
520,058	30,71
520,405	30,77
520,752	30,85
521,099	30,93
521,445	31,02
521,792	31,11
522,138	31,22
522,485	31,34
522,832	31,47
523,178	31,58
523,524	31,7
523,871	31,82
524,217	31,91
524,563	32,02
524,91	32,11
525,256	32,23
525,602	32,32
525,948	32,39
526,294	32,43
526,64	32,47
526,986	32,47
527,332	32,48
527,678	32,52
528,024	32,56
528,37	32,6
528,716	32,62
529,061	32,66
529,407	32,7
529,753	32,75
530,098	32,79
530,444	32,84
530,789	32,87
531,135	32,9
531,48	32,93
531,826	32,96
532,171	33,02
532,516	33,07
532,862	33,09
533,207	33,13
533,552	33,16
533,897	33,21
534,242	33,29
534,587	33,37
534,932	33,43
535,277	33,45
535,622	33,46
535,967	33,5
536,312	33,56
536,657	33,59
537,001	33,62
537,346	33,66
537,691	33,69
538,035	33,71
538,38	33,72
538,724	33,73
539,069	33,75
539,413	33,74
539,758	33,73
540,102	33,77
540,446	33,8
540,791	33,83
541,135	33,86
541,479	33,88
541,823	33,89
542,167	33,89
542,512	33,94
542,856	33,92
543,2	33,94
543,543	33,93
543,887	33,95
544,231	33,98
544,575	34,01
544,919	34,03
545,262	34,06
545,606	34,12
545,95	34,13
546,293	34,15
546,637	34,19
546,98	34,25
547,324	34,27
547,667	34,34
548,011	34,35
548,354	34,38
548,697	34,37
549,04	34,38
549,384	34,39
549,727	34,38
550,07	34,42
550,413	34,41
550,756	34,44
551,099	34,45
551,442	34,4
551,785	34,39
552,128	34,42
552,47	34,44
552,813	34,4
553,156	34,4
553,499	34,4
553,841	34,38
554,184	34,33
554,526	34,33
554,869	34,25
555,211	34,23
555,554	34,18
555,896	34,12
556,238	34,09
556,581	34,04
556,923	33,99
557,265	34
557,607	33,97
557,949	33,96
558,291	33,92
558,633	33,9
558,975	33,85
559,317	33,78
559,659	33,72
560,001	33,7
560,343	33,68
560,685	33,62
561,026	33,58
561,368	33,52
561,71	33,44
562,051	33,38
562,393	33,4
562,734	33,31
563,076	33,25
563,417	33,18
563,759	33,13
564,1	33,09
564,441	33,04
564,782	32,98
565,124	32,89
565,465	32,82
565,806	32,79
566,147	32,74
566,488	32,71
566,829	32,65
567,17	32,59
567,511	32,5
567,851	32,48
568,192	32,41
568,533	32,33
568,874	32,27
569,214	32,21
569,555	32,08
569,895	32,03
570,236	31,98
570,576	31,9
570,917	31,81
571,257	31,73
571,598	31,64
571,938	31,56
572,278	31,48
572,618	31,4
572,959	31,35
573,299	31,25
573,639	31,16
573,979	31,1
574,319	31,05
574,659	30,99
574,999	30,91
575,339	30,86
575,678	30,83
576,018	30,78
576,358	30,71
576,698	30,69
577,037	30,66
577,377	30,62
577,716	30,6
578,056	30,55
578,395	30,46
578,735	30,4
579,074	30,33
579,413	30,3
579,753	30,25
580,092	30,16
580,431	30,13
580,77	30,11
581,109	30,06
581,448	30,02
581,787	29,98
582,126	29,92
582,465	29,88
582,804	29,85
583,143	29,83
583,482	29,76
583,82	29,69
584,159	29,66
584,498	29,61
584,836	29,57
585,175	29,55
585,514	29,53
585,852	29,48
586,19	29,47
586,529	29,4
586,867	29,37
587,205	29,34
587,544	29,33
587,882	29,27
588,22	29,19
588,558	29,15
588,896	29,12
589,234	29,11
589,572	29,07
589,91	29,05
590,248	28,99
590,586	28,99
590,924	28,96
591,262	28,93
591,599	28,89
591,937	28,86
592,275	28,83
592,612	28,81
592,95	28,8
593,287	28,76
593,625	28,76
593,962	28,75
594,299	28,74
594,637	28,71
594,974	28,7
595,311	28,73
595,648	28,72
595,985	28,72
596,322	28,7
596,659	28,73
596,996	28,69
597,333	28,64
597,67	28,64
598,007	28,64
598,344	28,62
598,681	28,62
599,017	28,58
599,354	28,57
599,691	28,55
600,027	28,55
600,364	28,52
600,7	28,48
601,037	28,47
601,373	28,46
601,71	28,42
602,046	28,41
602,382	28,36
602,718	28,37
603,054	28,35
603,391	28,36
603,727	28,32
604,063	28,34
604,399	28,34
604,735	28,28
605,071	28,25
605,406	28,2
605,742	28,18
606,078	28,13
606,414	28,1
606,749	28,08
607,085	28,05
607,421	28,02
607,756	28,01
608,092	27,96
608,427	27,91
608,762	27,87
609,098	27,84
609,433	27,82
609,768	27,77
610,104	27,75
610,439	27,63
610,774	27,62
611,109	27,5
611,444	27,5
611,779	27,48
612,114	27,43
612,449	27,42
612,784	27,33
613,118	27,32
613,453	27,29
613,788	27,25
614,123	27,16
614,457	27,12
614,792	27,05
615,126	26,98
615,461	26,94
615,795	26,92
616,13	26,87
616,464	26,81
616,798	26,77
617,132	26,68
617,467	26,66
617,801	26,58
618,135	26,62
618,469	26,54
618,803	26,5
619,137	26,49
619,471	26,45
619,805	26,45
620,139	26,41
620,472	26,4
620,806	26,37
621,14	26,35
621,473	26,34
621,807	26,32
622,141	26,34
622,474	26,28
622,808	26,26
623,141	26,26
623,474	26,26
623,808	26,23
624,141	26,22
624,474	26,23
624,807	26,21
625,141	26,18
625,474	26,2
625,807	26,21
626,14	26,17
626,473	26,17
626,806	26,17
627,138	26,19
627,471	26,13
627,804	26,13
628,137	26,17
628,469	26,11
628,802	26,09
629,135	26,07
629,467	26,1
629,8	26,07
630,132	26,02
630,465	26,02
630,797	26,03
631,129	25,98
631,461	25,97
631,794	26,01
632,126	25,92
632,458	25,89
632,79	25,88
633,122	25,89
633,454	25,82
633,786	25,77
634,118	25,73
634,45	25,75
634,781	25,74
635,113	25,7
635,445	25,73
635,777	25,73
636,108	25,69
636,44	25,67
636,771	25,69
637,103	25,66
637,434	25,65
637,765	25,54
638,097	25,64
638,428	25,53
638,759	25,4
639,09	25,45
639,422	25,41
639,753	25,36
640,084	25,3
640,415	25,34
640,746	25,35
641,077	25,28
641,407	25,19
641,738	25,14
642,069	25,06
642,4	25,01
642,73	24,95
643,061	24,89
643,392	24,86
643,722	24,79
644,053	24,78
644,383	24,69
644,713	24,65
645,044	24,5
645,374	24,54
645,704	24,53
646,034	24,44
646,365	24,41
646,695	24,43
647,025	24,41
647,355	24,31
647,685	24,23
