Data from palm_cartel_d_45_25_Reflection_00001.txt Node
Date: Fri Feb 11 15:41:26 ART 2022
User: Nati
Spectrometer: USB2E3644
Trigger mode: 4
Integration Time (sec): 3,520000E-1
Scans to average: 10
Electric dark correction enabled: true
Nonlinearity correction enabled: false
Boxcar width: 10
XAxis mode: Wavelengths
Number of Pixels in Spectrum: 2048
>>>>>Begin Spectral Data<<<<<
178,315	37,38
178,696	24,04
179,076	23,13
179,457	24,87
179,838	24,82
180,218	-66,13
180,599	-142,86
180,979	50
181,36	17,6
181,74	-76,4
182,121	1123,08
182,501	437,21
182,881	-204,82
183,262	-46,49
183,642	4,52
184,022	45,91
184,402	70,63
184,783	68,69
185,163	75,06
185,543	72,17
185,923	62,66
186,303	54,58
186,683	48,88
187,063	51,55
187,443	59,08
187,823	121,27
188,203	318,31
188,583	480,52
188,963	1451,43
189,343	-3021,05
189,723	4188,24
190,102	973,49
190,482	805,94
190,862	-1062,69
191,242	-538,13
191,621	-448
192,001	-488,34
192,38	-368,72
192,76	-278,7
193,14	-208,15
193,519	-99,4
193,898	-92,12
194,278	-109,22
194,657	-128,28
195,037	-101,45
195,416	-102,47
195,795	-95,55
196,175	-87,64
196,554	-73,41
196,933	-85,66
197,312	-80,53
197,692	-61,36
198,071	-68,85
198,45	-85,55
198,829	-106,75
199,208	-108,55
199,587	-99,58
199,966	-92,93
200,345	-88,51
200,724	-81,74
201,103	-108,46
201,482	-164,69
201,86	-164,32
202,239	-137,92
202,618	-149,91
202,997	-169,32
203,375	-167,81
203,754	-168,9
204,133	-138,29
204,511	-107,13
204,89	-83,11
205,269	-86,45
205,647	-82,96
206,026	-67,32
206,404	-45,71
206,782	-48,78
207,161	-56,84
207,539	-65,55
207,918	-87,93
208,296	-126,99
208,674	-189,19
209,052	-182,62
209,431	-174,12
209,809	-195,1
210,187	-204,55
210,565	-202,38
210,943	-238,94
211,321	-332,55
211,699	-471,47
212,077	-1150,99
212,455	-2512,33
212,833	-5916,13
213,211	-1365,41
213,589	-897,56
213,967	-849,33
214,345	-1154,29
214,722	-1388,97
215,1	-1457,55
215,478	-2587,34
215,855	-1181,07
216,233	-712,45
216,611	-891,71
216,988	-926,2
217,366	-1243,61
217,743	-2109,59
218,121	-4064,86
218,498	-1560,44
218,876	-534,36
219,253	-389,32
219,631	-294,76
220,008	-250,92
220,385	-279,16
220,762	-308,05
221,14	-372,31
221,517	-431,14
221,894	-519,03
222,271	-629,15
222,648	-639,38
223,025	-408,3
223,402	-257,7
223,78	-286,53
224,157	-257,93
224,533	-176,23
224,91	-149,92
225,287	-142,06
225,664	-127,42
226,041	-143,1
226,418	-138,88
226,795	-161,92
227,171	-149,46
227,548	-136,35
227,925	-125,17
228,301	-121,63
228,678	-125,58
229,055	-126,21
229,431	-141,83
229,808	-149,92
230,184	-151,33
230,561	-141,61
230,937	-140,85
231,313	-159,32
231,69	-136,09
232,066	-117,23
232,442	-106,5
232,819	-107,23
233,195	-89,95
233,571	-96,04
233,947	-91,83
234,323	-97,79
234,699	-88,59
235,075	-89,5
235,451	-91,3
235,827	-87,95
236,203	-69,44
236,579	-64,11
236,955	-65,12
237,331	-55,05
237,707	-50,8
238,083	-48,54
238,459	-43,5
238,834	-35,68
239,21	-27,44
239,586	-24,45
239,961	-26,37
240,337	-30,96
240,713	-27,81
241,088	-27,56
241,464	-22,84
241,839	-19,78
242,215	-18,34
242,59	-17,49
242,965	-13,87
243,341	-7,04
243,716	-0,08
244,091	0,83
244,467	4,26
244,842	7,68
245,217	8,26
245,592	10,93
245,967	14,09
246,343	15,05
246,718	16,07
247,093	16,43
247,468	16,59
247,843	16,21
248,218	16,73
248,593	16,03
248,967	15,93
249,342	14,75
249,717	14,86
250,092	15,73
250,467	17,1
250,841	17,33
251,216	16,88
251,591	14,87
251,965	15
252,34	14,26
252,714	11,47
253,089	10,02
253,463	8,08
253,838	4,49
254,212	3,96
254,587	5,59
254,961	7,3
255,335	8,75
255,71	11
256,084	13,3
256,458	14,98
256,832	15,94
257,206	16,5
257,581	15,73
257,955	15,08
258,329	14,21
258,703	14,35
259,077	15,08
259,451	15,46
259,825	15,63
260,199	16,12
260,572	17,16
260,946	18,34
261,32	18,89
261,694	19,58
262,068	20,25
262,441	20,38
262,815	20,41
263,189	20,49
263,562	20,48
263,936	20,63
264,309	20,31
264,683	20,41
265,056	20,97
265,43	22,57
265,803	23,39
266,176	23,62
266,55	23,71
266,923	23,54
267,296	22,96
267,67	22,32
268,043	22,35
268,416	22,2
268,789	21,5
269,162	20,93
269,535	20,79
269,908	20,42
270,281	20,06
270,654	19,21
271,027	18,7
271,4	17,91
271,773	17,45
272,146	16,93
272,519	16,51
272,891	16,23
273,264	15,51
273,637	14,9
274,01	14,69
274,382	14,68
274,755	14,72
275,127	15,24
275,5	16,33
275,872	16,02
276,245	16
276,617	16,28
276,99	16,59
277,362	16,29
277,734	15,77
278,107	15,62
278,479	16,27
278,851	16,73
279,223	16,99
279,596	16,99
279,968	17,74
280,34	18,21
280,712	18,42
281,084	18,35
281,456	18,26
281,828	18,54
282,2	18,85
282,572	18,87
282,944	18,96
283,315	18,41
283,687	18,32
284,059	18,14
284,431	17,8
284,802	17,67
285,174	17,31
285,546	17,03
285,917	17,15
286,289	17,11
286,66	17,31
287,032	17,69
287,403	17,84
287,775	17,72
288,146	17,68
288,518	17,78
288,889	17,94
289,26	18,19
289,632	17,81
290,003	17,28
290,374	16,81
290,745	16,16
291,116	15,97
291,487	16,12
291,858	16,19
292,229	16,1
292,6	15,89
292,971	16,26
293,342	16,56
293,713	16,26
294,084	16,53
294,455	16,46
294,826	16,48
295,196	16,42
295,567	16,33
295,938	15,83
296,308	15,31
296,679	15,12
297,05	14,69
297,42	14,76
297,791	14,81
298,161	14,88
298,532	15,41
298,902	15,25
299,272	14,85
299,643	14,35
300,013	14,29
300,383	14,61
300,754	14,7
301,124	15,09
301,494	15,08
301,864	14,69
302,234	14,29
302,604	13,64
302,974	13,75
303,344	13,6
303,714	13,75
304,084	13,75
304,454	13,64
304,824	14
305,194	14,33
305,563	14,67
305,933	15,05
306,303	14,7
306,673	14,79
307,042	14,73
307,412	14,97
307,781	14,9
308,151	14,52
308,521	14,17
308,89	14,1
309,259	14,22
309,629	14,26
309,998	14,35
310,368	14,58
310,737	14,37
311,106	14,36
311,475	14,34
311,845	14,47
312,214	14,52
312,583	14,53
312,952	14,5
313,321	14,27
313,69	14,09
314,059	14,13
314,428	14,08
314,797	14,3
315,166	14,39
315,535	14,46
315,904	14,68
316,272	14,5
316,641	14,05
317,01	13,84
317,379	13,72
317,747	13,56
318,116	13,61
318,484	13,84
318,853	14,03
319,221	14,08
319,59	14,35
319,958	14,76
320,327	14,81
320,695	14,7
321,063	14,66
321,432	14,64
321,8	14,55
322,168	14,77
322,536	14,86
322,905	14,92
323,273	15,13
323,641	15,28
324,009	15,57
324,377	15,77
324,745	15,97
325,113	15,97
325,481	16,14
325,849	16,23
326,216	16,03
326,584	15,78
326,952	15,68
327,32	15,49
327,687	15,21
328,055	15,15
328,423	15,01
328,79	14,98
329,158	14,74
329,525	14,83
329,893	14,73
330,26	14,6
330,628	14,23
330,995	13,85
331,362	13,56
331,73	13,56
332,097	13,6
332,464	13,59
332,831	13,71
333,199	13,58
333,566	13,26
333,933	13,05
334,3	13,02
334,667	12,99
335,034	12,96
335,401	13,03
335,768	13,07
336,135	13,27
336,502	13,34
336,868	13,59
337,235	13,6
337,602	13,54
337,969	13,37
338,335	13,41
338,702	13,45
339,069	13,49
339,435	13,4
339,802	13,3
340,168	13,13
340,535	12,9
340,901	12,8
341,267	12,97
341,634	13,11
342	13,14
342,366	13,12
342,733	13,1
343,099	12,9
343,465	12,67
343,831	12,45
344,197	12,36
344,563	12,3
344,929	12,21
345,295	12,25
345,661	12,39
346,027	12,49
346,393	12,51
346,759	12,48
347,125	12,45
347,491	12,47
347,856	12,61
348,222	12,58
348,588	12,63
348,953	12,58
349,319	12,61
349,684	12,6
350,05	12,55
350,415	12,54
350,781	12,7
351,146	12,75
351,512	12,82
351,877	12,81
352,242	12,73
352,608	12,61
352,973	12,55
353,338	12,46
353,703	12,38
354,068	12,31
354,433	12,26
354,798	12,2
355,164	12,12
355,528	12,13
355,893	12,16
356,258	12,18
356,623	12,19
356,988	12,23
357,353	12,25
357,718	12,3
358,082	12,35
358,447	12,34
358,812	12,42
359,176	12,41
359,541	12,39
359,905	12,41
360,27	12,51
360,634	12,49
360,999	12,48
361,363	12,58
361,728	12,63
362,092	12,68
362,456	12,7
362,821	12,72
363,185	12,69
363,549	12,75
363,913	12,72
364,277	12,68
364,641	12,62
365,005	12,62
365,369	12,6
365,733	12,51
366,097	12,49
366,461	12,48
366,825	12,47
367,189	12,52
367,553	12,49
367,916	12,5
368,28	12,51
368,644	12,52
369,007	12,47
369,371	12,48
369,734	12,44
370,098	12,49
370,461	12,47
370,825	12,43
371,188	12,43
371,552	12,41
371,915	12,38
372,278	12,4
372,642	12,39
373,005	12,39
373,368	12,35
373,731	12,38
374,094	12,34
374,457	12,34
374,82	12,33
375,183	12,35
375,546	12,31
375,909	12,26
376,272	12,26
376,635	12,28
376,998	12,27
377,361	12,25
377,723	12,19
378,086	12,23
378,449	12,21
378,811	12,18
379,174	12,13
379,537	12,11
379,899	12,06
380,262	12,04
380,624	12,01
380,987	12,07
381,349	12,01
381,711	12,07
382,074	12,1
382,436	12,13
382,798	12,29
383,16	12,23
383,522	12,2
383,884	12,14
384,247	12,09
384,609	12,04
384,971	12,04
385,333	12,08
385,695	12,06
386,056	12,06
386,418	12,04
386,78	12,11
387,142	12,1
387,504	12,05
387,865	12,06
388,227	12,07
388,589	12,1
388,95	12,12
389,312	12,06
389,673	12,07
390,035	12,03
390,396	11,91
390,758	11,92
391,119	11,94
391,48	11,97
391,842	11,97
392,203	12,02
392,564	12,06
392,925	12,06
393,286	11,99
393,648	11,97
394,009	12
394,37	11,96
394,731	11,96
395,092	12,01
395,452	12
395,813	12
396,174	11,99
396,535	11,96
396,896	11,96
397,257	11,94
397,617	11,92
397,978	11,95
398,338	11,94
398,699	11,99
399,06	12,08
399,42	12,04
399,781	12,04
400,141	12,02
400,501	12,02
400,862	12,11
401,222	12,12
401,582	12,14
401,943	12,13
402,303	12,16
402,663	12,16
403,023	12,18
403,383	12,19
403,743	12,2
404,103	12,22
404,463	12,24
404,823	12,24
405,183	12,26
405,543	12,24
405,903	12,28
406,262	12,24
406,622	12,15
406,982	12,2
407,342	12,19
407,701	12,17
408,061	12,16
408,42	12,14
408,78	12,12
409,139	12,1
409,499	12,1
409,858	12,11
410,217	12,08
410,577	12,08
410,936	12,1
411,295	12,1
411,655	12,12
412,014	12,11
412,373	12,07
412,732	12,09
413,091	12,08
413,45	12,1
413,809	12,11
414,168	12,12
414,527	12,12
414,886	12,11
415,245	12,16
415,603	12,17
415,962	12,17
416,321	12,18
416,679	12,18
417,038	12,2
417,397	12,24
417,755	12,27
418,114	12,28
418,472	12,3
418,831	12,31
419,189	12,3
419,547	12,32
419,906	12,35
420,264	12,33
420,622	12,35
420,981	12,37
421,339	12,39
421,697	12,42
422,055	12,45
422,413	12,49
422,771	12,49
423,129	12,49
423,487	12,52
423,845	12,55
424,203	12,57
424,56	12,62
424,918	12,63
425,276	12,66
425,634	12,7
425,991	12,71
426,349	12,73
426,707	12,8
427,064	12,82
427,422	12,87
427,779	12,96
428,137	13,01
428,494	13,09
428,851	13,15
429,209	13,21
429,566	13,25
429,923	13,29
430,28	13,37
430,637	13,46
430,995	13,46
431,352	13,5
431,709	13,55
432,066	13,58
432,423	13,6
432,78	13,66
433,137	13,72
433,493	13,78
433,85	13,87
434,207	13,86
434,564	13,9
434,92	13,95
435,277	13,99
435,634	14,05
435,99	14,09
436,347	14,16
436,703	14,23
437,06	14,29
437,416	14,37
437,773	14,41
438,129	14,43
438,485	14,52
438,841	14,57
439,198	14,61
439,554	14,64
439,91	14,7
440,266	14,74
440,622	14,76
440,978	14,8
441,334	14,82
441,69	14,88
442,046	14,94
442,402	14,98
442,758	15,01
443,113	15,05
443,469	15,08
443,825	15,09
444,181	15,14
444,536	15,18
444,892	15,22
445,247	15,24
445,603	15,28
445,958	15,29
446,314	15,31
446,669	15,33
447,025	15,37
447,38	15,39
447,735	15,39
448,09	15,4
448,446	15,43
448,801	15,46
449,156	15,51
449,511	15,56
449,866	15,6
450,221	15,65
450,576	15,69
450,931	15,76
451,286	15,82
451,641	15,83
451,995	15,87
452,35	15,91
452,705	15,96
453,06	15,99
453,414	16,04
453,769	16,06
454,123	16,1
454,478	16,12
454,832	16,18
455,187	16,21
455,541	16,27
455,896	16,28
456,25	16,29
456,604	16,29
456,958	16,29
457,313	16,3
457,667	16,33
458,021	16,35
458,375	16,37
458,729	16,38
459,083	16,4
459,437	16,42
459,791	16,41
460,145	16,45
460,499	16,46
460,852	16,47
461,206	16,53
461,56	16,54
461,914	16,56
462,267	16,54
462,621	16,58
462,974	16,58
463,328	16,61
463,681	16,65
464,035	16,68
464,388	16,72
464,742	16,75
465,095	16,75
465,448	16,79
465,801	16,77
466,155	16,77
466,508	16,79
466,861	16,79
467,214	16,81
467,567	16,79
467,92	16,8
468,273	16,8
468,626	16,79
468,979	16,81
469,332	16,8
469,684	16,81
470,037	16,81
470,39	16,8
470,743	16,81
471,095	16,79
471,448	16,78
471,8	16,78
472,153	16,76
472,505	16,78
472,858	16,76
473,21	16,76
473,562	16,8
473,915	16,78
474,267	16,78
474,619	16,78
474,971	16,78
475,324	16,79
475,676	16,8
476,028	16,76
476,38	16,74
476,732	16,74
477,084	16,73
477,436	16,72
477,787	16,73
478,139	16,74
478,491	16,77
478,843	16,76
479,195	16,76
479,546	16,76
479,898	16,78
480,249	16,84
480,601	16,93
480,952	16,96
481,304	17
481,655	17
482,007	17
482,358	17,01
482,709	17,01
483,061	17
483,412	17,02
483,763	17,03
484,114	17,05
484,465	17,06
484,816	17,07
485,167	17,07
485,518	17,08
485,869	17,08
486,22	17,1
486,571	17,1
486,922	17,12
487,272	17,13
487,623	17,12
487,974	17,09
488,324	17,1
488,675	17,1
489,025	17,12
489,376	17,14
489,726	17,15
490,077	17,17
490,427	17,19
490,778	17,21
491,128	17,23
491,478	17,24
491,828	17,27
492,179	17,29
492,529	17,32
492,879	17,35
493,229	17,4
493,579	17,42
493,929	17,47
494,279	17,51
494,629	17,53
494,979	17,59
495,328	17,64
495,678	17,66
496,028	17,72
496,378	17,79
496,727	17,85
497,077	17,9
497,426	17,96
497,776	17,96
498,125	18,02
498,475	18,08
498,824	18,14
499,174	18,18
499,523	18,24
499,872	18,27
500,221	18,31
500,571	18,38
500,92	18,45
501,269	18,51
501,618	18,56
501,967	18,61
502,316	18,67
502,665	18,74
503,014	18,81
503,363	18,89
503,711	18,96
504,06	19,04
504,409	19,11
504,758	19,16
505,106	19,29
505,455	19,39
505,803	19,47
506,152	19,54
506,5	19,62
506,849	19,69
507,197	19,77
507,546	19,86
507,894	19,93
508,242	20,01
508,59	20,08
508,939	20,15
509,287	20,28
509,635	20,37
509,983	20,46
510,331	20,55
510,679	20,63
511,027	20,69
511,375	20,78
511,723	20,88
512,07	20,97
512,418	21,07
512,766	21,17
513,114	21,26
513,461	21,37
513,809	21,46
514,156	21,58
514,504	21,71
514,851	21,82
515,199	21,96
515,546	22,09
515,893	22,24
516,241	22,39
516,588	22,48
516,935	22,61
517,282	22,7
517,63	22,8
517,977	22,9
518,324	23,01
518,671	23,09
519,018	23,19
519,365	23,3
519,711	23,38
520,058	23,46
520,405	23,57
520,752	23,67
521,099	23,78
521,445	23,91
521,792	24,03
522,138	24,16
522,485	24,31
522,832	24,46
523,178	24,58
523,524	24,68
523,871	24,78
524,217	24,88
524,563	25,03
524,91	25,19
525,256	25,39
525,602	25,57
525,948	25,68
526,294	25,76
526,64	25,82
526,986	25,87
527,332	25,91
527,678	25,95
528,024	25,99
528,37	26,05
528,716	26,07
529,061	26,13
529,407	26,18
529,753	26,24
530,098	26,28
530,444	26,33
530,789	26,37
531,135	26,43
531,48	26,47
531,826	26,53
532,171	26,59
532,516	26,6
532,862	26,63
533,207	26,66
533,552	26,73
533,897	26,79
534,242	26,85
534,587	26,92
534,932	26,98
535,277	27,02
535,622	27,03
535,967	27,09
536,312	27,13
536,657	27,18
537,001	27,23
537,346	27,28
537,691	27,34
538,035	27,42
538,38	27,48
538,724	27,52
539,069	27,52
539,413	27,52
539,758	27,54
540,102	27,58
540,446	27,61
540,791	27,61
541,135	27,65
541,479	27,66
541,823	27,67
542,167	27,68
542,512	27,74
542,856	27,75
543,2	27,77
543,543	27,78
543,887	27,8
544,231	27,8
544,575	27,82
544,919	27,85
545,262	27,86
545,606	27,85
545,95	27,89
546,293	27,92
546,637	27,94
546,98	27,99
547,324	27,98
547,667	28,04
548,011	28,06
548,354	28,04
548,697	28,04
549,04	28,07
549,384	28,07
549,727	28,01
550,07	28,05
550,413	28,06
550,756	28,07
551,099	28,09
551,442	28,09
551,785	28,12
552,128	28,11
552,47	28,08
552,813	28,11
553,156	28,07
553,499	28,11
553,841	28,09
554,184	28,07
554,526	28,09
554,869	28,04
555,211	28,03
555,554	28,03
555,896	28,03
556,238	28,02
556,581	28,02
556,923	28,02
557,265	27,99
557,607	27,98
557,949	27,96
558,291	27,91
558,633	27,87
558,975	27,81
559,317	27,79
559,659	27,81
560,001	27,78
560,343	27,75
560,685	27,69
561,026	27,67
561,368	27,63
561,71	27,56
562,051	27,53
562,393	27,54
562,734	27,49
563,076	27,46
563,417	27,4
563,759	27,35
564,1	27,33
564,441	27,3
564,782	27,24
565,124	27,23
565,465	27,2
565,806	27,18
566,147	27,14
566,488	27,1
566,829	27,04
567,17	26,98
567,511	26,92
567,851	26,89
568,192	26,83
568,533	26,79
568,874	26,75
569,214	26,71
569,555	26,61
569,895	26,56
570,236	26,51
570,576	26,46
570,917	26,43
571,257	26,36
571,598	26,31
571,938	26,25
572,278	26,17
572,618	26,12
572,959	26,09
573,299	26,04
573,639	25,98
573,979	25,96
574,319	25,9
574,659	25,87
574,999	25,83
575,339	25,81
575,678	25,75
576,018	25,69
576,358	25,64
576,698	25,62
577,037	25,58
577,377	25,54
577,716	25,47
578,056	25,42
578,395	25,34
578,735	25,3
579,074	25,24
579,413	25,17
579,753	25,12
580,092	25,03
580,431	24,99
580,77	24,99
581,109	24,91
581,448	24,91
581,787	24,87
582,126	24,79
582,465	24,7
582,804	24,67
583,143	24,7
583,482	24,6
583,82	24,54
584,159	24,49
584,498	24,44
584,836	24,45
585,175	24,4
585,514	24,36
585,852	24,31
586,19	24,35
586,529	24,35
586,867	24,27
587,205	24,22
587,544	24,21
587,882	24,14
588,22	24,11
588,558	24,08
588,896	24,04
589,234	24,04
589,572	24,05
589,91	24,06
590,248	23,97
590,586	24,01
590,924	23,97
591,262	23,95
591,599	23,92
591,937	23,91
592,275	23,89
592,612	23,9
592,95	23,85
593,287	23,82
593,625	23,74
593,962	23,74
594,299	23,76
594,637	23,74
594,974	23,75
595,311	23,76
595,648	23,78
595,985	23,8
596,322	23,78
596,659	23,8
596,996	23,75
597,333	23,74
597,67	23,72
598,007	23,75
598,344	23,76
598,681	23,82
599,017	23,75
599,354	23,73
599,691	23,75
600,027	23,77
600,364	23,73
600,7	23,75
601,037	23,76
601,373	23,76
601,71	23,72
602,046	23,71
602,382	23,68
602,718	23,68
603,054	23,64
603,391	23,62
603,727	23,58
604,063	23,61
604,399	23,58
604,735	23,56
605,071	23,52
605,406	23,48
605,742	23,4
606,078	23,37
606,414	23,31
606,749	23,26
607,085	23,21
607,421	23,2
607,756	23,18
608,092	23,14
608,427	23,08
608,762	23,06
609,098	22,99
609,433	22,93
609,768	22,84
610,104	22,79
610,439	22,72
610,774	22,7
611,109	22,56
611,444	22,56
611,779	22,55
612,114	22,51
612,449	22,45
612,784	22,41
613,118	22,39
613,453	22,43
613,788	22,38
614,123	22,31
614,457	22,31
614,792	22,24
615,126	22,14
615,461	22,1
615,795	22,09
616,13	22,04
616,464	22,02
616,798	21,98
617,132	21,97
617,467	21,96
617,801	21,91
618,135	21,99
618,469	21,89
618,803	21,83
619,137	21,81
619,471	21,81
619,805	21,75
620,139	21,71
620,472	21,66
620,806	21,64
621,14	21,6
621,473	21,53
621,807	21,51
622,141	21,57
622,474	21,56
622,808	21,55
623,141	21,58
623,474	21,54
623,808	21,52
624,141	21,51
624,474	21,54
624,807	21,46
625,141	21,43
625,474	21,49
625,807	21,49
626,14	21,46
626,473	21,43
626,806	21,46
627,138	21,49
627,471	21,44
627,804	21,4
628,137	21,44
628,469	21,41
628,802	21,42
629,135	21,37
629,467	21,35
629,8	21,3
630,132	21,28
630,465	21,31
630,797	21,33
631,129	21,28
631,461	21,23
631,794	21,31
632,126	21,22
632,458	21,17
632,79	21,11
633,122	21,13
633,454	21,1
633,786	21,04
634,118	20,98
634,45	21,02
634,781	21,03
635,113	21
635,445	20,96
635,777	20,92
636,108	20,89
636,44	20,9
636,771	20,91
637,103	20,83
637,434	20,83
637,765	20,76
638,097	20,86
638,428	20,78
638,759	20,67
639,09	20,69
639,422	20,68
639,753	20,7
640,084	20,59
640,415	20,58
640,746	20,62
641,077	20,55
641,407	20,44
641,738	20,37
642,069	20,29
642,4	20,31
642,73	20,29
643,061	20,25
643,392	20,22
643,722	20,17
644,053	20,17
644,383	20,09
644,713	20,05
645,044	19,9
645,374	19,93
645,704	19,92
646,034	19,88
