Data from palm_tumJ_d_45_25_Reflection_00001.txt Node
Date: Fri Feb 11 15:27:19 ART 2022
User: Nati
Spectrometer: USB2E3644
Trigger mode: 4
Integration Time (sec): 3,520000E-1
Scans to average: 10
Electric dark correction enabled: true
Nonlinearity correction enabled: false
Boxcar width: 10
XAxis mode: Wavelengths
Number of Pixels in Spectrum: 2048
>>>>>Begin Spectral Data<<<<<
178,315	58,6
178,696	53,5
179,076	68,01
179,457	62,88
179,838	83,24
180,218	18,69
180,599	-111,27
180,979	-42,11
181,36	142,64
181,74	82,45
182,121	73,82
182,501	74,93
182,881	82,86
183,262	87,23
183,642	82,46
184,022	73,54
184,402	67,29
184,783	61,75
185,163	64,24
185,543	71,86
185,923	73,28
186,303	75,79
186,683	75,06
187,063	79,38
187,443	80,89
187,823	83,24
188,203	83,37
188,583	82,51
188,963	83,11
189,343	82,45
189,723	86,7
190,102	87,69
190,482	88,57
190,862	90,31
191,242	89,98
191,621	94,22
192,001	94,54
192,38	93,3
192,76	94,18
193,14	97,41
193,519	100,16
193,898	101,06
194,278	100,6
194,657	101,03
195,037	101,16
195,416	100,98
195,795	102,87
196,175	103,3
196,554	105,33
196,933	108,48
197,312	108,61
197,692	106,83
198,071	106,76
198,45	107,21
198,829	109,25
199,208	110,64
199,587	109,15
199,966	107,82
200,345	107,66
200,724	106,9
201,103	105,35
201,482	103,69
201,86	102,18
202,239	103,95
202,618	105,28
202,997	105,75
203,375	105,78
203,754	103,85
204,133	103,02
204,511	101,74
204,89	99,11
205,269	99,26
205,647	100,89
206,026	101,65
206,404	102,41
206,782	100,6
207,161	101,99
207,539	101,7
207,918	102,52
208,296	101,11
208,674	100,48
209,052	100
209,431	100,32
209,809	99,51
210,187	98,64
210,565	100,35
210,943	98,93
211,321	100,17
211,699	101,95
212,077	101,81
212,455	100,89
212,833	101,09
213,211	100,18
213,589	98,3
213,967	98,65
214,345	99,05
214,722	101,7
215,1	100,75
215,478	102,05
215,855	105,23
216,233	108,3
216,611	110,48
216,988	112,22
217,366	111,84
217,743	112,24
218,121	110,31
218,498	108,9
218,876	111,03
219,253	111,16
219,631	110,7
220,008	108,57
220,385	109,37
220,762	109,75
221,14	111,59
221,517	109,56
221,894	105,84
222,271	105,45
222,648	104,71
223,025	106,92
223,402	103,73
223,78	101,06
224,157	99,16
224,533	98,12
224,91	98,72
225,287	100,22
225,664	103,14
226,041	105,67
226,418	107,37
226,795	107,29
227,171	107,85
227,548	108,09
227,925	110,57
228,301	113,35
228,678	116,13
229,055	121,52
229,431	127,19
229,808	131,39
230,184	133
230,561	135,36
230,937	139,08
231,313	138,46
231,69	137,55
232,066	144,17
232,442	148,61
232,819	147,1
233,195	141,44
233,571	143,92
233,947	144,77
234,323	145,34
234,699	151,72
235,075	154,83
235,451	156,15
235,827	159,34
236,203	162,27
236,579	160,93
236,955	158,09
237,331	163,23
237,707	168,99
238,083	178,21
238,459	197,89
238,834	231,3
239,21	295,69
239,586	373,49
239,961	441,65
240,337	568,19
240,713	917,12
241,088	4266,04
241,464	-3568,85
241,839	-2020,39
242,215	-1306,13
242,59	-636,62
242,965	-231,21
243,341	-107,76
243,716	-69,46
244,091	-45,13
244,467	-32,2
244,842	-24,21
245,217	-20,08
245,592	-18,81
245,967	-21,24
246,343	-22,58
246,718	-21,83
247,093	-24,33
247,468	-25,48
247,843	-24,91
248,218	-22,66
248,593	-18,34
248,967	-15,79
249,342	-12,02
249,717	-10,7
250,092	-9,41
250,467	-11,25
250,841	-13,31
251,216	-14,42
251,591	-14,03
251,965	-16,94
252,34	-22,33
252,714	-29,52
253,089	-36,15
253,463	-37,36
253,838	-30,49
254,212	-24,87
254,587	-17,61
254,961	-13,2
255,335	-7,5
255,71	-2,04
256,084	4,96
256,458	8,04
256,832	10,54
257,206	11,12
257,581	12,69
257,955	13,14
258,329	13,93
258,703	15,28
259,077	15,47
259,451	14,59
259,825	14,28
260,199	14,34
260,572	15,55
260,946	16,83
261,32	17,43
261,694	17,08
262,068	17,31
262,441	16,9
262,815	17,16
263,189	17,45
263,562	16,62
263,936	15,37
264,309	14,18
264,683	12,42
265,056	12,42
265,43	11,69
265,803	12,1
266,176	12,89
266,55	12,79
266,923	12,43
267,296	13,07
267,67	13,72
268,043	14,81
268,416	15,62
268,789	16,32
269,162	16,84
269,535	17,42
269,908	17,28
270,281	17,72
270,654	18,11
271,027	17,7
271,4	18,18
271,773	17,82
272,146	17,45
272,519	17,76
272,891	17,57
273,264	17,42
273,637	16,9
274,01	16,54
274,382	16,58
274,755	17,1
275,127	17,22
275,5	16,8
275,872	16,41
276,245	16,27
276,617	15,71
276,99	15,81
277,362	16,17
277,734	16,2
278,107	16,28
278,479	16,22
278,851	16,18
279,223	16,65
279,596	17,29
279,968	17,25
280,34	17,09
280,712	17
281,084	17,39
281,456	18
281,828	18,45
282,2	18,96
282,572	18,71
282,944	19,52
283,315	20,24
283,687	20,71
284,059	20,57
284,431	20,49
284,802	20,19
285,174	20,16
285,546	20,37
285,917	20,55
286,289	21,03
286,66	21,28
287,032	20,85
287,403	20,69
287,775	21,07
288,146	20,9
288,518	20,75
288,889	20,69
289,26	20,89
289,632	21,33
290,003	21,13
290,374	21,41
290,745	20,98
291,116	20,5
291,487	20,07
291,858	20,03
292,229	20,22
292,6	20,53
292,971	20,36
293,342	20,8
293,713	20,84
294,084	20,59
294,455	20,79
294,826	21,06
295,196	20,99
295,567	20,96
295,938	21,28
296,308	21,6
296,679	21,51
297,05	21,51
297,42	21,24
297,791	21,1
298,161	20,63
298,532	20,42
298,902	20,54
299,272	21,01
299,643	21,11
300,013	21,62
300,383	21,67
300,754	21,77
301,124	21,31
301,494	21,21
301,864	21,42
302,234	21,05
302,604	20,89
302,974	20,91
303,344	20,66
303,714	20,54
304,084	20,44
304,454	20,6
304,824	20,6
305,194	20,38
305,563	20,57
305,933	21,05
306,303	21,13
306,673	21,13
307,042	20,7
307,412	20,71
307,781	20,67
308,151	20,55
308,521	20,44
308,89	20,57
309,259	20,49
309,629	20,21
309,998	20,44
310,368	20,66
310,737	20,94
311,106	21,06
311,475	21,12
311,845	21,02
312,214	20,75
312,583	20,61
312,952	20,68
313,321	20,61
313,69	20,44
314,059	20,37
314,428	20,27
314,797	20,37
315,166	20,16
315,535	19,86
315,904	20,09
316,272	20,09
316,641	19,83
317,01	19,77
317,379	19,89
317,747	19,86
318,116	19,54
318,484	18,95
318,853	18,94
319,221	18,88
319,59	18,98
319,958	19,13
320,327	19,22
320,695	19,01
321,063	18,92
321,432	18,86
321,8	18,97
322,168	19,11
322,536	19,09
322,905	19,21
323,273	19,09
323,641	18,98
324,009	18,91
324,377	19,05
324,745	19,24
325,113	19,07
325,481	19,01
325,849	19,33
326,216	19,79
326,584	19,94
326,952	20,25
327,32	20,29
327,687	20,6
328,055	20,67
328,423	20,85
328,79	20,92
329,158	21,14
329,525	21,16
329,893	21,05
330,26	20,97
330,628	21,01
330,995	21,17
331,362	21,08
331,73	20,98
332,097	20,97
332,464	20,83
332,831	20,72
333,199	20,63
333,566	20,54
333,933	20,22
334,3	19,94
334,667	19,61
335,034	19,56
335,401	19,45
335,768	19,36
336,135	19,38
336,502	19,34
336,868	19,23
337,235	19,13
337,602	19,24
337,969	19,41
338,335	19,45
338,702	19,43
339,069	19,41
339,435	19,52
339,802	19,55
340,168	19,69
340,535	19,8
340,901	19,9
341,267	19,74
341,634	19,8
342	19,84
342,366	19,96
342,733	20,03
343,099	19,99
343,465	19,95
343,831	19,96
344,197	19,95
344,563	20,02
344,929	20,05
345,295	20
345,661	20,02
346,027	20,05
346,393	20,01
346,759	19,8
347,125	19,72
347,491	19,66
347,856	19,69
348,222	19,68
348,588	19,61
348,953	19,68
349,319	19,8
349,684	19,8
350,05	19,7
350,415	19,65
350,781	19,63
351,146	19,62
351,512	19,52
351,877	19,66
352,242	19,7
352,608	19,7
352,973	19,74
353,338	19,7
353,703	19,6
354,068	19,61
354,433	19,79
354,798	19,82
355,164	19,81
355,528	19,59
355,893	19,57
356,258	19,59
356,623	19,52
356,988	19,47
357,353	19,57
357,718	19,59
358,082	19,51
358,447	19,48
358,812	19,59
359,176	19,66
359,541	19,56
359,905	19,5
360,27	19,45
360,634	19,55
360,999	19,56
361,363	19,62
361,728	19,66
362,092	19,71
362,456	19,76
362,821	19,88
363,185	19,96
363,549	19,94
363,913	19,94
364,277	20,04
364,641	20,03
365,005	20
365,369	20,02
365,733	20,09
366,097	20,08
366,461	20,02
366,825	19,92
367,189	19,92
367,553	19,89
367,916	19,97
368,28	19,91
368,644	19,88
369,007	19,91
369,371	19,94
369,734	19,92
370,098	19,96
370,461	19,91
370,825	19,89
371,188	19,94
371,552	19,98
371,915	19,97
372,278	19,98
372,642	20,03
373,005	20,11
373,368	20,13
373,731	20,25
374,094	20,25
374,457	20,35
374,82	20,41
375,183	20,52
375,546	20,56
375,909	20,59
376,272	20,65
376,635	20,66
376,998	20,61
377,361	20,68
377,723	20,67
378,086	20,69
378,449	20,79
378,811	20,89
379,174	20,88
379,537	20,87
379,899	20,94
380,262	20,97
380,624	20,94
380,987	20,96
381,349	20,92
381,711	21,01
382,074	21,01
382,436	21,03
382,798	21,06
383,16	20,9
383,522	20,8
383,884	20,79
384,247	20,81
384,609	20,84
384,971	20,81
385,333	20,81
385,695	20,85
386,056	20,8
386,418	20,72
386,78	20,86
387,142	20,79
387,504	20,74
387,865	20,7
388,227	20,73
388,589	20,74
388,95	20,77
389,312	20,71
389,673	20,8
390,035	20,74
390,396	20,67
390,758	20,69
391,119	20,75
391,48	20,7
391,842	20,68
392,203	20,68
392,564	20,71
392,925	20,72
393,286	20,65
393,648	20,66
394,009	20,71
394,37	20,62
394,731	20,68
395,092	20,71
395,452	20,73
395,813	20,73
396,174	20,69
396,535	20,7
396,896	20,7
397,257	20,66
397,617	20,69
397,978	20,79
398,338	20,78
398,699	20,83
399,06	20,97
399,42	20,94
399,781	20,98
400,141	20,96
400,501	21
400,862	21,1
401,222	21,07
401,582	21,1
401,943	21,11
402,303	21,12
402,663	21,1
403,023	21,12
403,383	21,14
403,743	21,18
404,103	21,21
404,463	21,25
404,823	21,29
405,183	21,31
405,543	21,32
405,903	21,39
406,262	21,38
406,622	21,34
406,982	21,39
407,342	21,4
407,701	21,42
408,061	21,44
408,42	21,46
408,78	21,56
409,139	21,57
409,499	21,6
409,858	21,67
410,217	21,75
410,577	21,78
410,936	21,84
411,295	21,9
411,655	21,9
412,014	21,94
412,373	21,94
412,732	21,89
413,091	21,86
413,45	21,9
413,809	21,92
414,168	21,9
414,527	21,87
414,886	21,89
415,245	21,86
415,603	21,81
415,962	21,78
416,321	21,78
416,679	21,76
417,038	21,77
417,397	21,77
417,755	21,76
418,114	21,78
418,472	21,78
418,831	21,78
419,189	21,8
419,547	21,79
419,906	21,8
420,264	21,83
420,622	21,88
420,981	21,93
421,339	21,96
421,697	22,01
422,055	22,1
422,413	22,12
422,771	22,19
423,129	22,26
423,487	22,31
423,845	22,39
424,203	22,43
424,56	22,5
424,918	22,55
425,276	22,64
425,634	22,71
425,991	22,78
426,349	22,85
426,707	22,92
427,064	23
427,422	23,09
427,779	23,22
428,137	23,28
428,494	23,38
428,851	23,49
429,209	23,53
429,566	23,57
429,923	23,65
430,28	23,67
430,637	23,72
430,995	23,74
431,352	23,75
431,709	23,8
432,066	23,87
432,423	23,93
432,78	23,98
433,137	24
433,493	24,02
433,85	24,11
434,207	24,1
434,564	24,13
434,92	24,19
435,277	24,18
435,634	24,2
435,99	24,18
436,347	24,2
436,703	24,25
437,06	24,27
437,416	24,29
437,773	24,31
438,129	24,31
438,485	24,38
438,841	24,39
439,198	24,38
439,554	24,36
439,91	24,38
440,266	24,37
440,622	24,39
440,978	24,41
441,334	24,38
441,69	24,41
442,046	24,42
442,402	24,41
442,758	24,43
443,113	24,45
443,469	24,48
443,825	24,5
444,181	24,53
444,536	24,57
444,892	24,61
445,247	24,66
445,603	24,7
445,958	24,7
446,314	24,72
446,669	24,79
447,025	24,83
447,38	24,86
447,735	24,89
448,09	24,92
448,446	24,93
448,801	24,97
449,156	25
449,511	25,05
449,866	25,1
450,221	25,16
450,576	25,23
450,931	25,29
451,286	25,36
451,641	25,4
451,995	25,47
452,35	25,51
452,705	25,52
453,06	25,56
453,414	25,6
453,769	25,62
454,123	25,6
454,478	25,62
454,832	25,62
455,187	25,58
455,541	25,59
455,896	25,59
456,25	25,54
456,604	25,54
456,958	25,51
457,313	25,52
457,667	25,53
458,021	25,54
458,375	25,56
458,729	25,56
459,083	25,55
459,437	25,55
459,791	25,54
460,145	25,57
460,499	25,57
460,852	25,55
461,206	25,58
461,56	25,59
461,914	25,6
462,267	25,6
462,621	25,63
462,974	25,66
463,328	25,68
463,681	25,73
464,035	25,75
464,388	25,8
464,742	25,83
465,095	25,85
465,448	25,86
465,801	25,86
466,155	25,89
466,508	25,9
466,861	25,87
467,214	25,86
467,567	25,86
467,92	25,86
468,273	25,87
468,626	25,85
468,979	25,87
469,332	25,87
469,684	25,85
470,037	25,87
470,39	25,87
470,743	25,89
471,095	25,92
471,448	25,94
471,8	25,97
472,153	25,96
472,505	25,96
472,858	25,96
473,21	25,95
473,562	25,95
473,915	25,94
474,267	25,94
474,619	25,94
474,971	25,92
475,324	25,94
475,676	26
476,028	25,96
476,38	25,94
476,732	25,93
477,084	25,93
477,436	25,91
477,787	25,9
478,139	25,9
478,491	25,9
478,843	25,87
479,195	25,84
479,546	25,77
479,898	25,72
480,249	25,73
480,601	25,76
480,952	25,73
481,304	25,71
481,655	25,7
482,007	25,68
482,358	25,66
482,709	25,64
483,061	25,6
483,412	25,61
483,763	25,58
484,114	25,58
484,465	25,56
484,816	25,56
485,167	25,55
485,518	25,52
485,869	25,51
486,22	25,51
486,571	25,51
486,922	25,52
487,272	25,54
487,623	25,51
487,974	25,48
488,324	25,48
488,675	25,47
489,025	25,48
489,376	25,5
489,726	25,51
490,077	25,53
490,427	25,57
490,778	25,58
491,128	25,64
491,478	25,65
491,828	25,7
492,179	25,73
492,529	25,78
492,879	25,83
493,229	25,86
493,579	25,9
493,929	25,93
494,279	25,98
494,629	26,02
494,979	26,06
495,328	26,13
495,678	26,18
496,028	26,27
496,378	26,35
496,727	26,42
497,077	26,49
497,426	26,58
497,776	26,59
498,125	26,65
498,475	26,68
498,824	26,72
499,174	26,77
499,523	26,8
499,872	26,85
500,221	26,91
500,571	26,99
500,92	27,05
501,269	27,15
501,618	27,22
501,967	27,27
502,316	27,35
502,665	27,41
503,014	27,51
503,363	27,59
503,711	27,64
504,06	27,7
504,409	27,75
504,758	27,78
505,106	27,87
505,455	27,93
505,803	28,02
506,152	28,07
506,5	28,15
506,849	28,21
507,197	28,28
507,546	28,34
507,894	28,42
508,242	28,51
508,59	28,56
508,939	28,63
509,287	28,71
509,635	28,78
509,983	28,85
510,331	28,91
510,679	29
511,027	29,09
511,375	29,2
511,723	29,3
512,07	29,4
512,418	29,5
512,766	29,61
513,114	29,7
513,461	29,84
513,809	29,91
514,156	30,03
514,504	30,15
514,851	30,26
515,199	30,36
515,546	30,45
515,893	30,57
516,241	30,67
516,588	30,75
516,935	30,88
517,282	30,98
517,63	31,1
517,977	31,16
518,324	31,26
518,671	31,34
519,018	31,46
519,365	31,53
519,711	31,65
520,058	31,73
520,405	31,81
520,752	31,89
521,099	32,02
521,445	32,15
521,792	32,26
522,138	32,39
522,485	32,54
522,832	32,69
523,178	32,81
523,524	32,96
523,871	33,07
524,217	33,16
524,563	33,26
524,91	33,37
525,256	33,51
525,602	33,65
525,948	33,72
526,294	33,76
526,64	33,82
526,986	33,83
527,332	33,86
527,678	33,88
528,024	33,93
528,37	33,98
528,716	34
529,061	34,04
529,407	34,09
529,753	34,15
530,098	34,19
530,444	34,25
530,789	34,27
531,135	34,32
531,48	34,36
531,826	34,42
532,171	34,46
532,516	34,51
532,862	34,52
533,207	34,58
533,552	34,64
533,897	34,68
534,242	34,74
534,587	34,81
534,932	34,88
535,277	34,91
535,622	34,92
535,967	34,97
536,312	35,02
536,657	35,07
537,001	35,09
537,346	35,14
537,691	35,19
538,035	35,23
538,38	35,27
538,724	35,28
539,069	35,28
539,413	35,3
539,758	35,31
540,102	35,35
540,446	35,38
540,791	35,41
541,135	35,43
541,479	35,45
541,823	35,46
542,167	35,47
542,512	35,51
542,856	35,49
543,2	35,48
543,543	35,49
543,887	35,47
544,231	35,5
544,575	35,53
544,919	35,55
545,262	35,58
545,606	35,61
545,95	35,66
546,293	35,72
546,637	35,74
546,98	35,8
547,324	35,81
547,667	35,86
548,011	35,89
548,354	35,93
548,697	35,93
549,04	35,93
549,384	35,96
549,727	35,95
550,07	36,01
550,413	36,06
550,756	36,07
551,099	36,1
551,442	36,1
551,785	36,11
552,128	36,11
552,47	36,11
552,813	36,12
553,156	36,1
553,499	36,06
553,841	36,06
554,184	36
554,526	35,99
554,869	35,92
555,211	35,89
555,554	35,85
555,896	35,85
556,238	35,84
556,581	35,82
556,923	35,76
557,265	35,74
557,607	35,71
557,949	35,68
558,291	35,68
558,633	35,62
558,975	35,54
559,317	35,48
559,659	35,45
560,001	35,38
560,343	35,33
560,685	35,3
561,026	35,23
561,368	35,22
561,71	35,15
562,051	35,09
562,393	35,09
562,734	34,98
563,076	34,92
563,417	34,87
563,759	34,8
564,1	34,77
564,441	34,69
564,782	34,65
565,124	34,59
565,465	34,51
565,806	34,45
566,147	34,39
566,488	34,36
566,829	34,32
567,17	34,26
567,511	34,18
567,851	34,1
568,192	34,03
568,533	33,95
568,874	33,87
569,214	33,82
569,555	33,7
569,895	33,65
570,236	33,58
570,576	33,48
570,917	33,38
571,257	33,28
571,598	33,18
571,938	33,06
572,278	32,97
572,618	32,92
572,959	32,89
573,299	32,82
573,639	32,73
573,979	32,64
574,319	32,58
574,659	32,55
574,999	32,47
575,339	32,39
575,678	32,31
576,018	32,23
576,358	32,15
576,698	32,1
577,037	32,04
577,377	31,95
577,716	31,92
578,056	31,89
578,395	31,84
578,735	31,82
579,074	31,79
579,413	31,74
579,753	31,67
580,092	31,57
580,431	31,52
580,77	31,51
581,109	31,46
581,448	31,4
581,787	31,33
582,126	31,3
582,465	31,29
582,804	31,25
583,143	31,29
583,482	31,22
583,82	31,15
584,159	31,12
584,498	31,12
584,836	31,09
585,175	31,05
585,514	31,02
585,852	30,99
586,19	30,94
586,529	30,9
586,867	30,85
587,205	30,84
587,544	30,82
587,882	30,76
588,22	30,72
588,558	30,69
588,896	30,68
589,234	30,65
589,572	30,61
589,91	30,59
590,248	30,53
590,586	30,55
590,924	30,54
591,262	30,52
591,599	30,47
591,937	30,43
592,275	30,41
592,612	30,41
592,95	30,36
593,287	30,37
593,625	30,33
593,962	30,3
594,299	30,28
594,637	30,26
594,974	30,24
595,311	30,25
595,648	30,28
595,985	30,29
596,322	30,28
596,659	30,35
596,996	30,32
597,333	30,24
597,67	30,21
598,007	30,21
598,344	30,19
598,681	30,22
599,017	30,17
599,354	30,11
599,691	30,09
600,027	30,12
600,364	30,08
600,7	30,09
601,037	30,07
601,373	30,09
601,71	30,09
602,046	30,1
602,382	30,03
602,718	30
603,054	29,95
603,391	29,93
603,727	29,86
604,063	29,86
604,399	29,86
604,735	29,81
605,071	29,76
605,406	29,74
605,742	29,7
606,078	29,69
606,414	29,68
606,749	29,66
607,085	29,63
607,421	29,58
607,756	29,53
608,092	29,52
608,427	29,44
608,762	29,38
609,098	29,29
609,433	29,26
609,768	29,19
610,104	29,16
610,439	29,08
610,774	29,05
611,109	28,97
611,444	28,96
611,779	28,94
612,114	28,9
612,449	28,86
612,784	28,76
613,118	28,73
613,453	28,7
613,788	28,61
614,123	28,49
614,457	28,49
614,792	28,46
615,126	28,4
615,461	28,38
615,795	28,32
616,13	28,3
616,464	28,26
616,798	28,24
617,132	28,19
617,467	28,17
617,801	28,13
618,135	28,18
618,469	28,14
618,803	28,09
619,137	28,1
619,471	28,03
619,805	28,01
620,139	27,94
620,472	27,91
620,806	27,9
621,14	27,9
621,473	27,84
621,807	27,84
622,141	27,8
622,474	27,74
622,808	27,78
623,141	27,79
623,474	27,74
623,808	27,74
624,141	27,73
624,474	27,73
624,807	27,71
625,141	27,66
625,474	27,62
625,807	27,64
626,14	27,58
626,473	27,6
626,806	27,6
627,138	27,63
627,471	27,58
627,804	27,55
628,137	27,58
628,469	27,49
628,802	27,47
629,135	27,45
629,467	27,49
629,8	27,43
630,132	27,4
630,465	27,45
630,797	27,42
631,129	27,4
631,461	27,37
631,794	27,4
632,126	27,36
632,458	27,34
632,79	27,3
633,122	27,3
633,454	27,27
633,786	27,23
634,118	27,22
634,45	27,25
634,781	27,28
635,113	27,24
635,445	27,3
635,777	27,28
636,108	27,24
636,44	27,17
636,771	27,17
637,103	27,14
637,434	27,09
637,765	27,05
638,097	27,07
638,428	27,03
638,759	26,94
639,09	26,94
639,422	26,96
639,753	26,98
640,084	26,96
640,415	26,91
640,746	26,92
641,077	26,83
641,407	26,74
641,738	26,66
642,069	26,6
642,4	26,54
642,73	26,49
643,061	26,45
643,392	26,39
643,722	26,31
644,053	26,25
644,383	26,17
644,713	26,11
645,044	25,96
645,374	25,92
645,704	25,87
646,034	25,85
646,365	25,75
646,695	25,66
647,025	25,63
647,355	25,56
647,685	25,43
648,015	25,4
648,344	25,37
